# wavelength (microns), QE
4.0000,0.2887
4.0200,0.2906
4.0400,0.2926
4.0600,0.2945
4.0800,0.2964
4.1000,0.2984
4.1200,0.3003
4.1400,0.3022
4.1600,0.3042
4.1800,0.3061
4.2000,0.3081
4.2200,0.3100
4.2400,0.3120
4.2600,0.3140
4.2800,0.3160
4.3000,0.3179
4.3200,0.3199
4.3400,0.3219
4.3600,0.3239
4.3800,0.3259
4.4000,0.3279
4.4200,0.3299
4.4400,0.3319
4.4600,0.3339
4.4800,0.3359
4.5000,0.3379
4.5200,0.3392
4.5400,0.3406
4.5600,0.3419
4.5800,0.3432
4.6000,0.3446
4.6200,0.3459
4.6400,0.3472
4.6600,0.3486
4.6800,0.3499
4.7000,0.3513
4.7200,0.3526
4.7400,0.3540
4.7600,0.3554
4.7800,0.3567
4.8000,0.3580
4.8200,0.3593
4.8400,0.3606
4.8600,0.3618
4.8800,0.3631
4.9000,0.3644
4.9200,0.3656
4.9400,0.3669
4.9600,0.3682
4.9800,0.3694
5.0000,0.3707
5.0200,0.3723
5.0400,0.3739
5.0600,0.3754
5.0800,0.3770
5.1000,0.3787
5.1200,0.3803
5.1400,0.3819
5.1600,0.3836
5.1800,0.3852
5.2000,0.3869
5.2200,0.3886
5.2400,0.3902
5.2600,0.3919
5.2800,0.3935
5.3000,0.3952
5.3200,0.3969
5.3400,0.3985
5.3600,0.4002
5.3800,0.4019
5.4000,0.4035
5.4200,0.4051
5.4400,0.4068
5.4600,0.4084
5.4800,0.4100
5.5000,0.4209
5.5200,0.4228
5.5400,0.4248
5.5600,0.4267
5.5800,0.4287
5.6000,0.4306
5.6200,0.4326
5.6400,0.4345
5.6600,0.4365
5.6800,0.4386
5.7000,0.4406
5.7200,0.4426
5.7400,0.4447
5.7600,0.4468
5.7800,0.4488
5.8000,0.4509
5.8200,0.4529
5.8400,0.4550
5.8600,0.4571
5.8800,0.4591
5.9000,0.4612
5.9200,0.4633
5.9400,0.4654
5.9600,0.4674
5.9800,0.4694
6.0000,0.4714
6.0200,0.4731
6.0400,0.4749
6.0600,0.4767
6.0800,0.4784
6.1000,0.4802
6.1200,0.4819
6.1400,0.4837
6.1600,0.4855
6.1800,0.4872
6.2000,0.4890
6.2200,0.4908
6.2400,0.4925
6.2600,0.4943
6.2800,0.4961
6.3000,0.4979
6.3200,0.4996
6.3400,0.5014
6.3600,0.5032
6.3800,0.5050
6.4000,0.5068
6.4200,0.5085
6.4400,0.5103
6.4600,0.5121
6.4800,0.5139
6.5000,0.5157
6.5200,0.5155
6.5400,0.5153
6.5600,0.5151
6.5800,0.5150
6.6000,0.5148
6.6200,0.5147
6.6400,0.5145
6.6600,0.5144
6.6800,0.5142
6.7000,0.5141
6.7200,0.5139
6.7400,0.5138
6.7600,0.5136
6.7800,0.5135
6.8000,0.5133
6.8200,0.5132
6.8400,0.5131
6.8600,0.5128
6.8800,0.5126
6.9000,0.5124
6.9200,0.5122
6.9400,0.5120
6.9600,0.5118
6.9800,0.5116
7.0000,0.5114
7.0200,0.5116
7.0400,0.5118
7.0600,0.5120
7.0800,0.5122
7.1000,0.5124
7.1200,0.5126
7.1400,0.5129
7.1600,0.5131
7.1800,0.5133
7.2000,0.5136
7.2200,0.5138
7.2400,0.5141
7.2600,0.5143
7.2800,0.5145
7.3000,0.5148
7.3200,0.5150
7.3400,0.5153
7.3600,0.5155
7.3800,0.5158
7.4000,0.5160
7.4200,0.5163
7.4400,0.5164
7.4600,0.5166
7.4800,0.5168
7.5000,0.5170
7.5200,0.5187
7.5400,0.5204
7.5600,0.5221
7.5800,0.5238
7.6000,0.5255
7.6200,0.5272
7.6400,0.5289
7.6600,0.5305
7.6800,0.5322
7.7000,0.5339
7.7200,0.5356
7.7400,0.5373
7.7600,0.5390
7.7800,0.5407
7.8000,0.5424
7.8200,0.5441
7.8400,0.5458
7.8600,0.5475
7.8800,0.5492
7.9000,0.5509
7.9200,0.5527
7.9400,0.5544
7.9600,0.5561
7.9800,0.5578
8.0000,0.5595
8.0200,0.5601
8.0400,0.5608
8.0600,0.5615
8.0800,0.5622
8.1000,0.5628
8.1200,0.5635
8.1400,0.5642
8.1600,0.5649
8.1800,0.5655
8.2000,0.5662
8.2200,0.5669
8.2400,0.5676
8.2600,0.5683
8.2800,0.5690
8.3000,0.5696
8.3200,0.5703
8.3400,0.5709
8.3600,0.5715
8.3800,0.5721
8.4000,0.5727
8.4200,0.5733
8.4400,0.5740
8.4600,0.5746
8.4800,0.5752
8.5000,0.5758
8.5200,0.5759
8.5400,0.5760
8.5600,0.5760
8.5800,0.5761
8.6000,0.5762
8.6200,0.5763
8.6400,0.5765
8.6600,0.5766
8.6800,0.5768
8.7000,0.5769
8.7200,0.5771
8.7400,0.5772
8.7600,0.5773
8.7800,0.5775
8.8000,0.5776
8.8200,0.5778
8.8400,0.5779
8.8600,0.5781
8.8800,0.5782
8.9000,0.5783
8.9200,0.5784
8.9400,0.5784
8.9600,0.5785
8.9800,0.5785
9.0000,0.5786
9.0200,0.5779
9.0400,0.5771
9.0600,0.5764
9.0800,0.5757
9.1000,0.5750
9.1200,0.5743
9.1400,0.5735
9.1600,0.5728
9.1800,0.5721
9.2000,0.5714
9.2200,0.5707
9.2400,0.5700
9.2600,0.5694
9.2800,0.5687
9.3000,0.5680
9.3200,0.5673
9.3400,0.5667
9.3600,0.5660
9.3800,0.5653
9.4000,0.5646
9.4200,0.5640
9.4400,0.5633
9.4600,0.5626
9.4800,0.5619
9.5000,0.5612
9.5200,0.5618
9.5400,0.5624
9.5600,0.5630
9.5800,0.5636
9.6000,0.5642
9.6200,0.5647
9.6400,0.5653
9.6600,0.5659
9.6800,0.5665
9.7000,0.5671
9.7200,0.5677
9.7400,0.5683
9.7600,0.5689
9.7800,0.5695
9.8000,0.5701
9.8200,0.5707
9.8400,0.5713
9.8600,0.5719
9.8800,0.5725
9.9000,0.5731
9.9200,0.5737
9.9400,0.5743
9.9600,0.5749
9.9800,0.5755
10.0000,0.5761
10.0200,0.5756
10.0400,0.5751
10.0600,0.5746
10.0800,0.5741
10.1000,0.5736
10.1200,0.5730
10.1400,0.5725
10.1600,0.5720
10.1800,0.5714
10.2000,0.5709
10.2200,0.5704
10.2400,0.5699
10.2600,0.5693
10.2800,0.5688
10.3000,0.5683
10.3200,0.5677
10.3400,0.5672
10.3600,0.5667
10.3800,0.5662
10.4000,0.5657
10.4200,0.5652
10.4400,0.5648
10.4600,0.5643
10.4800,0.5638
10.5000,0.5633
10.5200,0.5627
10.5400,0.5621
10.5600,0.5615
10.5800,0.5609
10.6000,0.5603
10.6200,0.5597
10.6400,0.5591
10.6600,0.5585
10.6800,0.5579
10.7000,0.5572
10.7200,0.5566
10.7400,0.5559
10.7600,0.5553
10.7800,0.5546
10.8000,0.5540
10.8200,0.5533
10.8400,0.5526
10.8600,0.5520
10.8800,0.5513
10.9000,0.5507
10.9200,0.5500
10.9400,0.5493
10.9600,0.5487
10.9800,0.5480
11.0000,0.5473
11.0200,0.5468
11.0400,0.5463
11.0600,0.5457
11.0800,0.5452
11.1000,0.5447
11.1200,0.5442
11.1400,0.5437
11.1600,0.5432
11.1800,0.5427
11.2000,0.5422
11.2200,0.5417
11.2400,0.5412
11.2600,0.5407
11.2800,0.5402
11.3000,0.5397
11.3200,0.5393
11.3400,0.5388
11.3600,0.5383
11.3800,0.5378
11.4000,0.5374
11.4200,0.5369
11.4400,0.5364
11.4600,0.5359
11.4800,0.5355
11.5000,0.5350
11.5200,0.5349
11.5400,0.5349
11.5600,0.5348
11.5800,0.5348
11.6000,0.5347
11.6200,0.5347
11.6400,0.5346
11.6600,0.5346
11.6800,0.5345
11.7000,0.5344
11.7200,0.5344
11.7400,0.5343
11.7600,0.5343
11.7800,0.5342
11.8000,0.5342
11.8200,0.5341
11.8400,0.5340
11.8600,0.5339
11.8800,0.5338
11.9000,0.5337
11.9200,0.5336
11.9400,0.5335
11.9600,0.5334
11.9800,0.5333
12.0000,0.5332
12.0200,0.5334
12.0400,0.5337
12.0600,0.5339
12.0800,0.5341
12.1000,0.5343
12.1200,0.5345
12.1400,0.5347
12.1600,0.5349
12.1800,0.5351
12.2000,0.5353
12.2200,0.5354
12.2400,0.5356
12.2600,0.5358
12.2800,0.5360
12.3000,0.5362
12.3200,0.5364
12.3400,0.5366
12.3600,0.5367
12.3800,0.5369
12.4000,0.5371
12.4200,0.5373
12.4400,0.5375
12.4600,0.5378
12.4800,0.5380
12.5000,0.5382
12.5200,0.5377
12.5400,0.5372
12.5600,0.5366
12.5800,0.5361
12.6000,0.5356
12.6200,0.5351
12.6400,0.5346
12.6600,0.5340
12.6800,0.5335
12.7000,0.5330
12.7200,0.5325
12.7400,0.5319
12.7600,0.5314
12.7800,0.5309
12.8000,0.5304
12.8200,0.5299
12.8400,0.5293
12.8600,0.5288
12.8800,0.5283
12.9000,0.5278
12.9200,0.5272
12.9400,0.5267
12.9600,0.5262
12.9800,0.5256
13.0000,0.5251
13.0200,0.5243
13.0400,0.5235
13.0600,0.5227
13.0800,0.5219
13.1000,0.5211
13.1200,0.5203
13.1400,0.5195
13.1600,0.5188
13.1800,0.5180
13.2000,0.5172
13.2200,0.5164
13.2400,0.5156
13.2600,0.5148
13.2800,0.5140
13.3000,0.5132
13.3200,0.5124
13.3400,0.5116
13.3600,0.5109
13.3800,0.5101
13.4000,0.5093
13.4200,0.5086
13.4400,0.5078
13.4600,0.5070
13.4800,0.5062
13.5000,0.5055
13.5200,0.5067
13.5400,0.5080
13.5600,0.5093
13.5800,0.5106
13.6000,0.5119
13.6200,0.5131
13.6400,0.5144
13.6600,0.5157
13.6800,0.5169
13.7000,0.5182
13.7200,0.5194
13.7400,0.5207
13.7600,0.5220
13.7800,0.5232
13.8000,0.5245
13.8200,0.5257
13.8400,0.5270
13.8600,0.5283
13.8800,0.5295
13.9000,0.5308
13.9200,0.5321
13.9400,0.5334
13.9600,0.5347
13.9800,0.5360
14.0000,0.5373
14.0200,0.5400
14.0400,0.5427
14.0600,0.5454
14.0800,0.5481
14.1000,0.5508
14.1200,0.5535
14.1400,0.5562
14.1600,0.5589
14.1800,0.5616
14.2000,0.5643
14.2200,0.5669
14.2400,0.5696
14.2600,0.5723
14.2800,0.5749
14.3000,0.5776
14.3200,0.5803
14.3400,0.5829
14.3600,0.5856
14.3800,0.5883
14.4000,0.5909
14.4200,0.5906
14.4400,0.5903
14.4600,0.5900
14.4800,0.5897
14.5000,0.5893
14.5200,0.5887
14.5400,0.5881
14.5600,0.5875
14.5800,0.5869
14.6000,0.5863
14.6200,0.5857
14.6400,0.5851
14.6600,0.5845
14.6800,0.5839
14.7000,0.5833
14.7200,0.5827
14.7400,0.5821
14.7600,0.5815
14.7800,0.5810
14.8000,0.5804
14.8200,0.5798
14.8400,0.5793
14.8600,0.5787
14.8800,0.5781
14.9000,0.5776
14.9200,0.5770
14.9400,0.5764
14.9600,0.5759
14.9800,0.5753
15.0000,0.5747
15.0200,0.5740
15.0400,0.5733
15.0600,0.5726
15.0800,0.5718
15.1000,0.5710
15.1200,0.5702
15.1400,0.5694
15.1600,0.5686
15.1800,0.5678
15.2000,0.5670
15.2200,0.5662
15.2400,0.5654
15.2600,0.5646
15.2800,0.5638
15.3000,0.5630
15.3200,0.5622
15.3400,0.5614
15.3600,0.5606
15.3800,0.5598
15.4000,0.5590
15.4200,0.5582
15.4400,0.5574
15.4600,0.5566
15.4800,0.5558
15.5000,0.5550
15.5200,0.5537
15.5400,0.5524
15.5600,0.5512
15.5800,0.5499
15.6000,0.5486
15.6200,0.5473
15.6400,0.5460
15.6600,0.5448
15.6800,0.5435
15.7000,0.5422
15.7200,0.5409
15.7400,0.5396
15.7600,0.5384
15.7800,0.5371
15.8000,0.5358
15.8200,0.5345
15.8400,0.5332
15.8600,0.5320
15.8800,0.5307
15.9000,0.5294
15.9200,0.5281
15.9400,0.5268
15.9600,0.5256
15.9800,0.5243
16.0000,0.5230
16.0200,0.5234
16.0400,0.5239
16.0600,0.5243
16.0800,0.5248
16.1000,0.5252
16.1200,0.5256
16.1400,0.5261
16.1600,0.5265
16.1800,0.5270
16.2000,0.5274
16.2200,0.5278
16.2400,0.5283
16.2600,0.5287
16.2800,0.5292
16.3000,0.5296
16.3200,0.5300
16.3400,0.5305
16.3600,0.5309
16.3800,0.5314
16.4000,0.5318
16.4200,0.5322
16.4400,0.5327
16.4600,0.5331
16.4800,0.5336
16.5000,0.5340
16.5200,0.5348
16.5400,0.5356
16.5600,0.5364
16.5800,0.5372
16.6000,0.5380
16.6200,0.5388
16.6400,0.5396
16.6600,0.5404
16.6800,0.5412
16.7000,0.5420
16.7200,0.5428
16.7400,0.5436
16.7600,0.5444
16.7800,0.5452
16.8000,0.5460
16.8200,0.5468
16.8400,0.5476
16.8600,0.5484
16.8800,0.5492
16.9000,0.5500
16.9200,0.5508
16.9400,0.5516
16.9600,0.5524
16.9800,0.5532
17.0000,0.5540
17.0200,0.5529
17.0400,0.5518
17.0600,0.5506
17.0800,0.5495
17.1000,0.5484
17.1200,0.5473
17.1400,0.5462
17.1600,0.5450
17.1800,0.5439
17.2000,0.5428
17.2200,0.5417
17.2400,0.5406
17.2600,0.5394
17.2800,0.5383
17.3000,0.5372
17.3200,0.5361
17.3400,0.5350
17.3600,0.5338
17.3800,0.5327
17.4000,0.5316
17.4200,0.5305
17.4400,0.5294
17.4600,0.5282
17.4800,0.5271
17.5000,0.5260
17.5200,0.5246
17.5400,0.5232
17.5600,0.5218
17.5800,0.5204
17.6000,0.5190
17.6200,0.5176
17.6400,0.5162
17.6600,0.5148
17.6800,0.5134
17.7000,0.5120
17.7200,0.5106
17.7400,0.5092
17.7600,0.5078
17.7800,0.5064
17.8000,0.5050
17.8200,0.5036
17.8400,0.5022
17.8600,0.5008
17.8800,0.4994
17.9000,0.4980
17.9200,0.4966
17.9400,0.4952
17.9600,0.4938
17.9800,0.4924
18.0000,0.4910
18.0200,0.4908
18.0400,0.4906
18.0600,0.4904
18.0800,0.4902
18.1000,0.4900
18.1200,0.4898
18.1400,0.4896
18.1600,0.4894
18.1800,0.4892
18.2000,0.4890
18.2200,0.4888
18.2400,0.4886
18.2600,0.4884
18.2800,0.4882
18.3000,0.4880
18.3200,0.4878
18.3400,0.4876
18.3600,0.4874
18.3800,0.4872
18.4000,0.4870
18.4200,0.4868
18.4400,0.4866
18.4600,0.4864
18.4800,0.4862
18.5000,0.4860
18.5200,0.4850
18.5400,0.4841
18.5600,0.4831
18.5800,0.4822
18.6000,0.4812
18.6200,0.4802
18.6400,0.4793
18.6600,0.4783
18.6800,0.4774
18.7000,0.4764
18.7200,0.4754
18.7400,0.4745
18.7600,0.4735
18.7800,0.4726
18.8000,0.4716
18.8200,0.4706
18.8400,0.4697
18.8600,0.4687
18.8800,0.4678
18.9000,0.4668
18.9200,0.4658
18.9400,0.4649
18.9600,0.4639
18.9800,0.4630
19.0000,0.4620
19.0200,0.4620
19.0400,0.4619
19.0600,0.4619
19.0800,0.4618
19.1000,0.4618
19.1200,0.4618
19.1400,0.4617
19.1600,0.4617
19.1800,0.4616
19.2000,0.4616
19.2200,0.4616
19.2400,0.4615
19.2600,0.4615
19.2800,0.4614
19.3000,0.4614
19.3200,0.4614
19.3400,0.4613
19.3600,0.4613
19.3800,0.4612
19.4000,0.4612
19.4200,0.4612
19.4400,0.4611
19.4600,0.4611
19.4800,0.4610
19.5000,0.4610
19.5200,0.4599
19.5400,0.4588
19.5600,0.4576
19.5800,0.4565
19.6000,0.4554
19.6200,0.4543
19.6400,0.4532
19.6600,0.4520
19.6800,0.4509
19.7000,0.4498
19.7200,0.4487
19.7400,0.4476
19.7600,0.4464
19.7800,0.4453
19.8000,0.4442
19.8200,0.4431
19.8400,0.4420
19.8600,0.4408
19.8800,0.4397
19.9000,0.4386
19.9200,0.4375
19.9400,0.4364
19.9600,0.4352
19.9800,0.4341
20.0000,0.4330
20.0200,0.4334
20.0400,0.4339
20.0600,0.4343
20.0800,0.4348
20.1000,0.4352
20.1200,0.4356
20.1400,0.4361
20.1600,0.4365
20.1800,0.4370
20.2000,0.4374
20.2200,0.4378
20.2400,0.4383
20.2600,0.4387
20.2800,0.4392
20.3000,0.4396
20.3200,0.4400
20.3400,0.4405
20.3600,0.4409
20.3800,0.4414
20.4000,0.4418
20.4200,0.4422
20.4400,0.4427
20.4600,0.4431
20.4800,0.4436
20.5000,0.4440
20.5200,0.4442
20.5400,0.4444
20.5600,0.4446
20.5800,0.4448
20.6000,0.4450
20.6200,0.4452
20.6400,0.4454
20.6600,0.4456
20.6800,0.4458
20.7000,0.4460
20.7200,0.4462
20.7400,0.4464
20.7600,0.4466
20.7800,0.4468
20.8000,0.4470
20.8200,0.4472
20.8400,0.4474
20.8600,0.4476
20.8800,0.4478
20.9000,0.4480
20.9200,0.4482
20.9400,0.4484
20.9600,0.4486
20.9800,0.4488
21.0000,0.4490
21.0200,0.4498
21.0400,0.4506
21.0600,0.4514
21.0800,0.4522
21.1000,0.4530
21.1200,0.4538
21.1400,0.4546
21.1600,0.4554
21.1800,0.4562
21.2000,0.4570
21.2200,0.4578
21.2400,0.4586
21.2600,0.4594
21.2800,0.4602
21.3000,0.4610
21.3200,0.4618
21.3400,0.4626
21.3600,0.4634
21.3800,0.4642
21.4000,0.4650
21.4200,0.4658
21.4400,0.4666
21.4600,0.4674
21.4800,0.4682
21.5000,0.4690
21.5200,0.4686
21.5400,0.4683
21.5600,0.4679
21.5800,0.4676
21.6000,0.4672
21.6200,0.4668
21.6400,0.4665
21.6600,0.4661
21.6800,0.4658
21.7000,0.4654
21.7200,0.4650
21.7400,0.4647
21.7600,0.4643
21.7800,0.4640
21.8000,0.4636
21.8200,0.4632
21.8400,0.4629
21.8600,0.4625
21.8800,0.4622
21.9000,0.4618
21.9200,0.4614
21.9400,0.4611
21.9600,0.4607
21.9800,0.4604
22.0000,0.4600
22.0200,0.4599
22.0400,0.4598
22.0600,0.4596
22.0800,0.4595
22.1000,0.4594
22.1200,0.4593
22.1400,0.4592
22.1600,0.4590
22.1800,0.4589
22.2000,0.4588
22.2200,0.4587
22.2400,0.4586
22.2600,0.4584
22.2800,0.4583
22.3000,0.4582
22.3200,0.4581
22.3400,0.4580
22.3600,0.4578
22.3800,0.4577
22.4000,0.4576
22.4200,0.4575
22.4400,0.4574
22.4600,0.4572
22.4800,0.4571
22.5000,0.4570
22.5200,0.4564
22.5400,0.4558
22.5600,0.4552
22.5800,0.4546
22.6000,0.4540
22.6200,0.4534
22.6400,0.4528
22.6600,0.4522
22.6800,0.4516
22.7000,0.4510
22.7200,0.4504
22.7400,0.4498
22.7600,0.4492
22.7800,0.4486
22.8000,0.4480
22.8200,0.4474
22.8400,0.4468
22.8600,0.4462
22.8800,0.4456
22.9000,0.4450
22.9200,0.4444
22.9400,0.4438
22.9600,0.4432
22.9800,0.4426
23.0000,0.4420
23.0200,0.4410
23.0400,0.4401
23.0600,0.4391
23.0800,0.4382
23.1000,0.4372
23.1200,0.4362
23.1400,0.4353
23.1600,0.4343
23.1800,0.4334
23.2000,0.4324
23.2200,0.4314
23.2400,0.4305
23.2600,0.4295
23.2800,0.4286
23.3000,0.4276
23.3200,0.4266
23.3400,0.4257
23.3600,0.4247
23.3800,0.4238
23.4000,0.4228
23.4200,0.4218
23.4400,0.4209
23.4600,0.4199
23.4800,0.4190
23.5000,0.4180
23.5200,0.4177
23.5400,0.4174
23.5600,0.4170
23.5800,0.4167
23.6000,0.4164
23.6200,0.4161
23.6400,0.4158
23.6600,0.4154
23.6800,0.4151
23.7000,0.4148
23.7200,0.4145
23.7400,0.4142
23.7600,0.4138
23.7800,0.4135
23.8000,0.4132
23.8200,0.4129
23.8400,0.4126
23.8600,0.4122
23.8800,0.4119
23.9000,0.4116
23.9200,0.4113
23.9400,0.4110
23.9600,0.4106
23.9800,0.4103
24.0000,0.4100
24.0200,0.4088
24.0400,0.4075
24.0600,0.4063
24.0800,0.4050
24.1000,0.4038
24.1200,0.4026
24.1400,0.4013
24.1600,0.4001
24.1800,0.3988
24.2000,0.3976
24.2200,0.3964
24.2400,0.3951
24.2600,0.3939
24.2800,0.3926
24.3000,0.3914
24.3200,0.3902
24.3400,0.3889
24.3600,0.3877
24.3800,0.3864
24.4000,0.3852
24.4200,0.3840
24.4400,0.3827
24.4600,0.3815
24.4800,0.3802
24.5000,0.3790
24.5200,0.3774
24.5400,0.3759
24.5600,0.3743
24.5800,0.3728
24.6000,0.3712
24.6200,0.3696
24.6400,0.3681
24.6600,0.3665
24.6800,0.3650
24.7000,0.3634
24.7200,0.3618
24.7400,0.3603
24.7600,0.3587
24.7800,0.3572
24.8000,0.3556
24.8200,0.3540
24.8400,0.3525
24.8600,0.3509
24.8800,0.3494
24.9000,0.3478
24.9200,0.3462
24.9400,0.3447
24.9600,0.3431
24.9800,0.3416
25.0000,0.3400
25.0200,0.3385
25.0400,0.3370
25.0600,0.3354
25.0800,0.3339
25.1000,0.3324
25.1200,0.3309
25.1400,0.3294
25.1600,0.3278
25.1800,0.3263
25.2000,0.3248
25.2200,0.3233
25.2400,0.3218
25.2600,0.3202
25.2800,0.3187
25.3000,0.3172
25.3200,0.3157
25.3400,0.3142
25.3600,0.3126
25.3800,0.3111
25.4000,0.3096
25.4200,0.3081
25.4400,0.3066
25.4600,0.3050
25.4800,0.3035
25.5000,0.3020
25.5200,0.3005
25.5400,0.2990
25.5600,0.2974
25.5800,0.2959
25.6000,0.2944
25.6200,0.2929
25.6400,0.2914
25.6600,0.2898
25.6800,0.2883
25.7000,0.2868
25.7200,0.2853
25.7400,0.2838
25.7600,0.2822
25.7800,0.2807
25.8000,0.2792
25.8200,0.2777
25.8400,0.2762
25.8600,0.2746
25.8800,0.2731
25.9000,0.2716
25.9200,0.2701
25.9400,0.2686
25.9600,0.2670
25.9800,0.2655
26.0000,0.2640
26.0200,0.2622
26.0400,0.2604
26.0600,0.2586
26.0800,0.2568
26.1000,0.2550
26.1200,0.2532
26.1400,0.2514
26.1600,0.2496
26.1800,0.2478
26.2000,0.2460
26.2200,0.2442
26.2400,0.2424
26.2600,0.2406
26.2800,0.2388
26.3000,0.2370
26.3200,0.2352
26.3400,0.2334
26.3600,0.2316
26.3800,0.2298
26.4000,0.2280
26.4200,0.2262
26.4400,0.2244
26.4600,0.2226
26.4800,0.2208
26.5000,0.2190
26.5200,0.2164
26.5400,0.2139
26.5600,0.2113
26.5800,0.2088
26.6000,0.2062
26.6200,0.2036
26.6400,0.2011
26.6600,0.1985
26.6800,0.1960
26.7000,0.1934
26.7200,0.1908
26.7400,0.1883
26.7600,0.1857
26.7800,0.1832
26.8000,0.1806
26.8200,0.1780
26.8400,0.1755
26.8600,0.1729
26.8800,0.1704
26.9000,0.1678
26.9200,0.1652
26.9400,0.1627
26.9600,0.1601
26.9800,0.1576
27.0000,0.1550
27.0200,0.1533
27.0400,0.1516
27.0600,0.1500
27.0800,0.1483
27.1000,0.1466
27.1200,0.1449
27.1400,0.1432
27.1600,0.1416
27.1800,0.1399
27.2000,0.1382
27.2200,0.1365
27.2400,0.1348
27.2600,0.1332
27.2800,0.1315
27.3000,0.1298
27.3200,0.1281
27.3400,0.1264
27.3600,0.1248
27.3800,0.1231
27.4000,0.1214
27.4200,0.1197
27.4400,0.1180
27.4600,0.1164
27.4800,0.1147
27.5000,0.1130
27.5200,0.1113
27.5400,0.1096
27.5600,0.1078
27.5800,0.1061
27.6000,0.1044
27.6200,0.1027
27.6400,0.1010
27.6600,0.0992
27.6800,0.0975
27.7000,0.0958
27.7200,0.0941
27.7400,0.0924
27.7600,0.0906
27.7800,0.0889
27.8000,0.0872
27.8200,0.0855
27.8400,0.0838
27.8600,0.0820
27.8800,0.0803
27.9000,0.0786
27.9200,0.0769
27.9400,0.0752
27.9600,0.0734
27.9800,0.0717
28.0000,0.0700
28.0200,0.0692
28.0400,0.0684
28.0600,0.0676
28.0800,0.0668
28.1000,0.0660
28.1200,0.0652
28.1400,0.0644
28.1600,0.0636
28.1800,0.0628
28.2000,0.0620
28.2200,0.0612
28.2400,0.0604
28.2600,0.0596
28.2800,0.0588
28.3000,0.0580
28.3200,0.0572
28.3400,0.0564
28.3600,0.0556
28.3800,0.0548
28.4000,0.0540
28.4200,0.0532
28.4400,0.0524
28.4600,0.0516
28.4800,0.0508
28.5000,0.0500
28.5200,0.0494
28.5400,0.0489
28.5600,0.0483
28.5800,0.0478
28.6000,0.0472
28.6200,0.0466
28.6400,0.0461
28.6600,0.0455
28.6800,0.0450
28.7000,0.0444
28.7200,0.0438
28.7400,0.0433
28.7600,0.0427
28.7800,0.0422
28.8000,0.0416
28.8200,0.0410
28.8400,0.0405
28.8600,0.0399
28.8800,0.0394
28.9000,0.0388
28.9200,0.0382
28.9400,0.0377
28.9600,0.0371
28.9800,0.0366
29.0000,0.0360
29.0200,0.0355
29.0400,0.0350
29.0600,0.0346
29.0800,0.0341
29.1000,0.0336
29.1200,0.0331
29.1400,0.0326
29.1600,0.0322
29.1800,0.0317
29.2000,0.0312
29.2200,0.0307
29.2400,0.0302
29.2600,0.0298
29.2800,0.0293
29.3000,0.0288
29.3200,0.0283
29.3400,0.0278
29.3600,0.0274
29.3800,0.0269
29.4000,0.0264
29.4200,0.0259
29.4400,0.0254
29.4600,0.0250
29.4800,0.0245
29.5000,0.0240
29.5200,0.0236
29.5400,0.0233
29.5600,0.0229
29.5800,0.0226
29.6000,0.0222
29.6200,0.0218
29.6400,0.0215
29.6600,0.0211
29.6800,0.0208
29.7000,0.0204
29.7200,0.0200
29.7400,0.0197
29.7600,0.0193
29.7800,0.0190
29.8000,0.0186
29.8200,0.0182
29.8400,0.0179
29.8600,0.0175
29.8800,0.0172
29.9000,0.0168
29.9200,0.0164
29.9400,0.0161
29.9600,0.0157
29.9800,0.0154
30.0000,0.0150
30.0200,0.0146
30.0400,0.0143
30.0600,0.0139
30.0800,0.0136
30.1000,0.0132
30.1200,0.0128
30.1400,0.0125
30.1600,0.0121
30.1800,0.0118
30.2000,0.0114
30.2200,0.0110
30.2400,0.0107
30.2600,0.0103
30.2800,0.0100
30.3000,0.0096
30.3200,0.0092
30.3400,0.0089
30.3600,0.0085
30.3800,0.0082
30.4000,0.0078
30.4200,0.0074
30.4400,0.0071
30.4600,0.0067
30.4800,0.0064
30.5000,0.0060
30.5200,0.0056
30.5400,0.0053
30.5600,0.0049
30.5800,0.0046
30.6000,0.0042
30.6200,0.0038
30.6400,0.0035
30.6600,0.0031
30.6800,0.0028
30.7000,0.0024
30.7200,0.0020
30.7400,0.0017
30.7600,0.0013
30.7800,0.0010
30.8000,0.0006
30.8200,0.0002
30.8400,-0.0001
30.8600,-0.0005
30.8800,-0.0008
30.9000,-0.0012
30.9200,-0.0016
30.9400,-0.0019
30.9600,-0.0023
30.9800,-0.0026
31.0000,-0.0030
31.0200,-0.0034
31.0400,-0.0037
31.0600,-0.0041
31.0800,-0.0044
31.1000,-0.0048
31.1200,-0.0052
31.1400,-0.0055
31.1600,-0.0059
31.1800,-0.0062
31.2000,-0.0066
31.2200,-0.0070
31.2400,-0.0073
31.2600,-0.0077
31.2800,-0.0080
31.3000,-0.0084
31.3200,-0.0088
31.3400,-0.0091
31.3600,-0.0095
31.3800,-0.0098
31.4000,-0.0102
31.4200,-0.0106
31.4400,-0.0109
31.4600,-0.0113
31.4800,-0.0116
31.5000,-0.0120
31.5200,-0.0124
31.5400,-0.0127
31.5600,-0.0131
31.5800,-0.0134
31.6000,-0.0138
31.6200,-0.0142
31.6400,-0.0145
31.6600,-0.0149
31.6800,-0.0152
31.7000,-0.0156
31.7200,-0.0160
31.7400,-0.0163
31.7600,-0.0167
31.7800,-0.0170
31.8000,-0.0174
31.8200,-0.0178
31.8400,-0.0181
31.8600,-0.0185
31.8800,-0.0188
31.9000,-0.0192
31.9200,-0.0196
31.9400,-0.0199
31.9600,-0.0203
31.9800,-0.0206
32.0000,-0.0210
32.0200,-0.0214
32.0400,-0.0217
32.0600,-0.0221
32.0800,-0.0224
32.1000,-0.0228
32.1200,-0.0232
32.1400,-0.0235
32.1600,-0.0239
32.1800,-0.0242
32.2000,-0.0246
32.2200,-0.0250
32.2400,-0.0253
32.2600,-0.0257
32.2800,-0.0260
32.3000,-0.0264
32.3200,-0.0268
32.3400,-0.0271
32.3600,-0.0275
32.3800,-0.0278
32.4000,-0.0282
32.4200,-0.0286
32.4400,-0.0289
32.4600,-0.0293
32.4800,-0.0296
32.5000,-0.0300
32.5200,-0.0304
32.5400,-0.0307
32.5600,-0.0311
32.5800,-0.0314
32.6000,-0.0318
32.6200,-0.0322
32.6400,-0.0325
32.6600,-0.0329
32.6800,-0.0332
32.7000,-0.0336
32.7200,-0.0340
32.7400,-0.0343
32.7600,-0.0347
32.7800,-0.0350
32.8000,-0.0354
32.8200,-0.0358
32.8400,-0.0361
32.8600,-0.0365
32.8800,-0.0368
32.9000,-0.0372
32.9200,-0.0376
32.9400,-0.0379
32.9600,-0.0383
32.9800,-0.0386
33.0000,-0.0390
33.0200,-0.0394
33.0400,-0.0397
33.0600,-0.0401
33.0800,-0.0404
33.1000,-0.0408
33.1200,-0.0412
33.1400,-0.0415
33.1600,-0.0419
33.1800,-0.0422
33.2000,-0.0426
33.2200,-0.0430
33.2400,-0.0433
33.2600,-0.0437
33.2800,-0.0440
33.3000,-0.0444
33.3200,-0.0448
33.3400,-0.0451
33.3600,-0.0455
33.3800,-0.0458
33.4000,-0.0462
33.4200,-0.0466
33.4400,-0.0469
33.4600,-0.0473
33.4800,-0.0476
33.5000,-0.0480
33.5200,-0.0484
33.5400,-0.0487
33.5600,-0.0491
33.5800,-0.0494
33.6000,-0.0498
33.6200,-0.0502
33.6400,-0.0505
33.6600,-0.0509
33.6800,-0.0512
33.7000,-0.0516
33.7200,-0.0520
33.7400,-0.0523
33.7600,-0.0527
33.7800,-0.0530
33.8000,-0.0534
33.8200,-0.0538
33.8400,-0.0541
33.8600,-0.0545
33.8800,-0.0548
33.9000,-0.0552
33.9200,-0.0556
33.9400,-0.0559
33.9600,-0.0563
33.9800,-0.0566
34.0000,-0.0570
34.0200,-0.0574
34.0400,-0.0577
34.0600,-0.0581
34.0800,-0.0584
34.1000,-0.0588
34.1200,-0.0592
34.1400,-0.0595
34.1600,-0.0599
34.1800,-0.0602
34.2000,-0.0606
34.2200,-0.0610
34.2400,-0.0613
34.2600,-0.0617
34.2800,-0.0620
34.3000,-0.0624
34.3200,-0.0628
34.3400,-0.0631
34.3600,-0.0635
34.3800,-0.0638
34.4000,-0.0642
34.4200,-0.0646
34.4400,-0.0649
34.4600,-0.0653
34.4800,-0.0656
34.5000,-0.0660
34.5200,-0.0664
34.5400,-0.0667
34.5600,-0.0671
34.5800,-0.0674
34.6000,-0.0678
34.6200,-0.0682
34.6400,-0.0685
34.6600,-0.0689
34.6800,-0.0692
34.7000,-0.0696
34.7200,-0.0700
34.7400,-0.0703
34.7600,-0.0707
34.7800,-0.0710
34.8000,-0.0714
34.8200,-0.0718
34.8400,-0.0721
34.8600,-0.0725
34.8800,-0.0728
34.9000,-0.0732
34.9200,-0.0736
34.9400,-0.0739
34.9600,-0.0743
34.9800,-0.0746
