# wavelength (microns), QE
4.0000,0.2561
4.0200,0.2566
4.0400,0.2571
4.0600,0.2576
4.0800,0.2581
4.1000,0.2586
4.1200,0.2591
4.1400,0.2597
4.1600,0.2602
4.1800,0.2607
4.2000,0.2612
4.2200,0.2617
4.2400,0.2622
4.2600,0.2628
4.2800,0.2633
4.3000,0.2638
4.3200,0.2644
4.3400,0.2649
4.3600,0.2654
4.3800,0.2659
4.4000,0.2665
4.4200,0.2670
4.4400,0.2675
4.4600,0.2681
4.4800,0.2686
4.5000,0.2692
4.5200,0.2717
4.5400,0.2743
4.5600,0.2768
4.5800,0.2794
4.6000,0.2819
4.6200,0.2845
4.6400,0.2870
4.6600,0.2896
4.6800,0.2922
4.7000,0.2948
4.7200,0.2973
4.7400,0.2999
4.7600,0.3025
4.7800,0.3051
4.8000,0.3077
4.8200,0.3102
4.8400,0.3127
4.8600,0.3152
4.8800,0.3177
4.9000,0.3203
4.9200,0.3228
4.9400,0.3253
4.9600,0.3278
4.9800,0.3304
5.0000,0.3329
5.0200,0.3359
5.0400,0.3389
5.0600,0.3419
5.0800,0.3449
5.1000,0.3480
5.1200,0.3511
5.1400,0.3541
5.1600,0.3572
5.1800,0.3603
5.2000,0.3634
5.2200,0.3665
5.2400,0.3696
5.2600,0.3727
5.2800,0.3758
5.3000,0.3789
5.3200,0.3821
5.3400,0.3852
5.3600,0.3883
5.3800,0.3914
5.4000,0.3945
5.4200,0.3976
5.4400,0.4007
5.4600,0.4038
5.4800,0.4069
5.5000,0.4184
5.5200,0.4200
5.5400,0.4216
5.5600,0.4232
5.5800,0.4248
5.6000,0.4264
5.6200,0.4281
5.6400,0.4297
5.6600,0.4313
5.6800,0.4330
5.7000,0.4347
5.7200,0.4364
5.7400,0.4381
5.7600,0.4398
5.7800,0.4416
5.8000,0.4433
5.8200,0.4450
5.8400,0.4467
5.8600,0.4485
5.8800,0.4502
5.9000,0.4519
5.9200,0.4536
5.9400,0.4554
5.9600,0.4571
5.9800,0.4587
6.0000,0.4603
6.0200,0.4604
6.0400,0.4604
6.0600,0.4605
6.0800,0.4605
6.1000,0.4606
6.1200,0.4606
6.1400,0.4607
6.1600,0.4607
6.1800,0.4608
6.2000,0.4608
6.2200,0.4609
6.2400,0.4609
6.2600,0.4610
6.2800,0.4610
6.3000,0.4610
6.3200,0.4611
6.3400,0.4611
6.3600,0.4612
6.3800,0.4612
6.4000,0.4612
6.4200,0.4613
6.4400,0.4613
6.4600,0.4614
6.4800,0.4614
6.5000,0.4615
6.5200,0.4598
6.5400,0.4581
6.5600,0.4564
6.5800,0.4548
6.6000,0.4532
6.6200,0.4515
6.6400,0.4499
6.6600,0.4482
6.6800,0.4466
6.7000,0.4449
6.7200,0.4433
6.7400,0.4416
6.7600,0.4400
6.7800,0.4383
6.8000,0.4367
6.8200,0.4350
6.8400,0.4334
6.8600,0.4316
6.8800,0.4299
6.9000,0.4282
6.9200,0.4265
6.9400,0.4248
6.9600,0.4230
6.9800,0.4213
7.0000,0.4196
7.0200,0.4189
7.0400,0.4182
7.0600,0.4175
7.0800,0.4169
7.1000,0.4162
7.1200,0.4155
7.1400,0.4148
7.1600,0.4142
7.1800,0.4135
7.2000,0.4128
7.2200,0.4122
7.2400,0.4115
7.2600,0.4108
7.2800,0.4102
7.3000,0.4095
7.3200,0.4088
7.3400,0.4082
7.3600,0.4075
7.3800,0.4068
7.4000,0.4062
7.4200,0.4055
7.4400,0.4048
7.4600,0.4041
7.4800,0.4033
7.5000,0.4026
7.5200,0.4036
7.5400,0.4046
7.5600,0.4056
7.5800,0.4066
7.6000,0.4076
7.6200,0.4086
7.6400,0.4096
7.6600,0.4105
7.6800,0.4115
7.7000,0.4125
7.7200,0.4135
7.7400,0.4145
7.7600,0.4155
7.7800,0.4165
7.8000,0.4175
7.8200,0.4185
7.8400,0.4195
7.8600,0.4205
7.8800,0.4215
7.9000,0.4225
7.9200,0.4235
7.9400,0.4245
7.9600,0.4255
7.9800,0.4265
8.0000,0.4275
8.0200,0.4281
8.0400,0.4287
8.0600,0.4294
8.0800,0.4300
8.1000,0.4306
8.1200,0.4313
8.1400,0.4319
8.1600,0.4326
8.1800,0.4332
8.2000,0.4338
8.2200,0.4345
8.2400,0.4351
8.2600,0.4358
8.2800,0.4364
8.3000,0.4371
8.3200,0.4377
8.3400,0.4383
8.3600,0.4388
8.3800,0.4394
8.4000,0.4400
8.4200,0.4406
8.4400,0.4412
8.4600,0.4418
8.4800,0.4424
8.5000,0.4430
8.5200,0.4436
8.5400,0.4441
8.5600,0.4447
8.5800,0.4452
8.6000,0.4458
8.6200,0.4464
8.6400,0.4470
8.6600,0.4477
8.6800,0.4483
8.7000,0.4489
8.7200,0.4495
8.7400,0.4502
8.7600,0.4508
8.7800,0.4514
8.8000,0.4520
8.8200,0.4526
8.8400,0.4533
8.8600,0.4539
8.8800,0.4545
8.9000,0.4551
8.9200,0.4557
8.9400,0.4562
8.9600,0.4568
8.9800,0.4573
9.0000,0.4579
9.0200,0.4580
9.0400,0.4582
9.0600,0.4584
9.0800,0.4585
9.1000,0.4587
9.1200,0.4588
9.1400,0.4590
9.1600,0.4591
9.1800,0.4593
9.2000,0.4594
9.2200,0.4596
9.2400,0.4598
9.2600,0.4600
9.2800,0.4602
9.3000,0.4604
9.3200,0.4606
9.3400,0.4608
9.3600,0.4610
9.3800,0.4612
9.4000,0.4614
9.4200,0.4616
9.4400,0.4618
9.4600,0.4620
9.4800,0.4622
9.5000,0.4624
9.5200,0.4638
9.5400,0.4651
9.5600,0.4665
9.5800,0.4679
9.6000,0.4693
9.6200,0.4706
9.6400,0.4720
9.6600,0.4734
9.6800,0.4748
9.7000,0.4762
9.7200,0.4775
9.7400,0.4789
9.7600,0.4803
9.7800,0.4817
9.8000,0.4831
9.8200,0.4845
9.8400,0.4859
9.8600,0.4873
9.8800,0.4886
9.9000,0.4900
9.9200,0.4914
9.9400,0.4928
9.9600,0.4942
9.9800,0.4956
10.0000,0.4970
10.0200,0.4976
10.0400,0.4982
10.0600,0.4988
10.0800,0.4994
10.1000,0.5000
10.1200,0.5006
10.1400,0.5012
10.1600,0.5017
10.1800,0.5023
10.2000,0.5029
10.2200,0.5035
10.2400,0.5041
10.2600,0.5046
10.2800,0.5052
10.3000,0.5058
10.3200,0.5064
10.3400,0.5070
10.3600,0.5076
10.3800,0.5082
10.4000,0.5088
10.4200,0.5095
10.4400,0.5101
10.4600,0.5107
10.4800,0.5114
10.5000,0.5120
10.5200,0.5125
10.5400,0.5129
10.5600,0.5134
10.5800,0.5138
10.6000,0.5143
10.6200,0.5147
10.6400,0.5152
10.6600,0.5156
10.6800,0.5160
10.7000,0.5164
10.7200,0.5168
10.7400,0.5172
10.7600,0.5176
10.7800,0.5180
10.8000,0.5184
10.8200,0.5188
10.8400,0.5192
10.8600,0.5196
10.8800,0.5200
10.9000,0.5204
10.9200,0.5208
10.9400,0.5212
10.9600,0.5216
10.9800,0.5220
11.0000,0.5223
11.0200,0.5229
11.0400,0.5234
11.0600,0.5239
11.0800,0.5244
11.1000,0.5250
11.1200,0.5255
11.1400,0.5260
11.1600,0.5265
11.1800,0.5271
11.2000,0.5276
11.2200,0.5281
11.2400,0.5286
11.2600,0.5292
11.2800,0.5297
11.3000,0.5303
11.3200,0.5309
11.3400,0.5314
11.3600,0.5320
11.3800,0.5326
11.4000,0.5331
11.4200,0.5337
11.4400,0.5343
11.4600,0.5348
11.4800,0.5354
11.5000,0.5359
11.5200,0.5369
11.5400,0.5378
11.5600,0.5387
11.5800,0.5396
11.6000,0.5405
11.6200,0.5414
11.6400,0.5424
11.6600,0.5433
11.6800,0.5442
11.7000,0.5451
11.7200,0.5460
11.7400,0.5469
11.7600,0.5479
11.7800,0.5488
11.8000,0.5497
11.8200,0.5506
11.8400,0.5515
11.8600,0.5524
11.8800,0.5533
11.9000,0.5541
11.9200,0.5550
11.9400,0.5559
11.9600,0.5568
11.9800,0.5577
12.0000,0.5585
12.0200,0.5597
12.0400,0.5608
12.0600,0.5620
12.0800,0.5631
12.1000,0.5643
12.1200,0.5655
12.1400,0.5666
12.1600,0.5677
12.1800,0.5689
12.2000,0.5700
12.2200,0.5711
12.2400,0.5722
12.2600,0.5734
12.2800,0.5745
12.3000,0.5756
12.3200,0.5768
12.3400,0.5779
12.3600,0.5790
12.3800,0.5802
12.4000,0.5813
12.4200,0.5824
12.4400,0.5836
12.4600,0.5848
12.4800,0.5860
12.5000,0.5871
12.5200,0.5874
12.5400,0.5878
12.5600,0.5881
12.5800,0.5884
12.6000,0.5887
12.6200,0.5890
12.6400,0.5893
12.6600,0.5897
12.6800,0.5900
12.7000,0.5903
12.7200,0.5906
12.7400,0.5909
12.7600,0.5912
12.7800,0.5916
12.8000,0.5919
12.8200,0.5922
12.8400,0.5925
12.8600,0.5928
12.8800,0.5932
12.9000,0.5935
12.9200,0.5938
12.9400,0.5941
12.9600,0.5944
12.9800,0.5948
13.0000,0.5951
13.0200,0.5949
13.0400,0.5947
13.0600,0.5945
13.0800,0.5943
13.1000,0.5941
13.1200,0.5939
13.1400,0.5937
13.1600,0.5935
13.1800,0.5933
13.2000,0.5931
13.2200,0.5929
13.2400,0.5927
13.2600,0.5925
13.2800,0.5923
13.3000,0.5922
13.3200,0.5920
13.3400,0.5918
13.3600,0.5917
13.3800,0.5915
13.4000,0.5913
13.4200,0.5912
13.4400,0.5910
13.4600,0.5909
13.4800,0.5907
13.5000,0.5905
13.5200,0.5927
13.5400,0.5949
13.5600,0.5972
13.5800,0.5994
13.6000,0.6016
13.6200,0.6038
13.6400,0.6059
13.6600,0.6081
13.6800,0.6103
13.7000,0.6125
13.7200,0.6147
13.7400,0.6169
13.7600,0.6191
13.7800,0.6212
13.8000,0.6234
13.8200,0.6256
13.8400,0.6278
13.8600,0.6300
13.8800,0.6322
13.9000,0.6344
13.9200,0.6366
13.9400,0.6389
13.9600,0.6411
13.9800,0.6433
14.0000,0.6456
14.0200,0.6494
14.0400,0.6533
14.0600,0.6572
14.0800,0.6610
14.1000,0.6649
14.1200,0.6687
14.1400,0.6726
14.1600,0.6765
14.1800,0.6804
14.2000,0.6842
14.2200,0.6880
14.2400,0.6918
14.2600,0.6957
14.2800,0.6995
14.3000,0.7033
14.3200,0.7072
14.3400,0.7110
14.3600,0.7148
14.3800,0.7187
14.4000,0.7225
14.4200,0.7226
14.4400,0.7227
14.4600,0.7228
14.4800,0.7229
14.5000,0.7229
14.5200,0.7227
14.5400,0.7225
14.5600,0.7223
14.5800,0.7222
14.6000,0.7220
14.6200,0.7218
14.6400,0.7216
14.6600,0.7214
14.6800,0.7212
14.7000,0.7210
14.7200,0.7208
14.7400,0.7206
14.7600,0.7205
14.7800,0.7203
14.8000,0.7202
14.8200,0.7200
14.8400,0.7199
14.8600,0.7197
14.8800,0.7196
14.9000,0.7194
14.9200,0.7193
14.9400,0.7191
14.9600,0.7190
14.9800,0.7188
15.0000,0.7187
15.0200,0.7182
15.0400,0.7178
15.0600,0.7173
15.0800,0.7168
15.1000,0.7162
15.1200,0.7156
15.1400,0.7151
15.1600,0.7145
15.1800,0.7140
15.2000,0.7134
15.2200,0.7128
15.2400,0.7123
15.2600,0.7117
15.2800,0.7112
15.3000,0.7106
15.3200,0.7100
15.3400,0.7095
15.3600,0.7089
15.3800,0.7084
15.4000,0.7078
15.4200,0.7072
15.4400,0.7067
15.4600,0.7061
15.4800,0.7056
15.5000,0.7050
15.5200,0.7037
15.5400,0.7024
15.5600,0.7010
15.5800,0.6997
15.6000,0.6984
15.6200,0.6971
15.6400,0.6958
15.6600,0.6944
15.6800,0.6931
15.7000,0.6918
15.7200,0.6905
15.7400,0.6892
15.7600,0.6878
15.7800,0.6865
15.8000,0.6852
15.8200,0.6839
15.8400,0.6826
15.8600,0.6812
15.8800,0.6799
15.9000,0.6786
15.9200,0.6773
15.9400,0.6760
15.9600,0.6746
15.9800,0.6733
16.0000,0.6720
16.0200,0.6728
16.0400,0.6735
16.0600,0.6743
16.0800,0.6750
16.1000,0.6758
16.1200,0.6766
16.1400,0.6773
16.1600,0.6781
16.1800,0.6788
16.2000,0.6796
16.2200,0.6804
16.2400,0.6811
16.2600,0.6819
16.2800,0.6826
16.3000,0.6834
16.3200,0.6842
16.3400,0.6849
16.3600,0.6857
16.3800,0.6864
16.4000,0.6872
16.4200,0.6880
16.4400,0.6887
16.4600,0.6895
16.4800,0.6902
16.5000,0.6910
16.5200,0.6922
16.5400,0.6935
16.5600,0.6947
16.5800,0.6960
16.6000,0.6972
16.6200,0.6984
16.6400,0.6997
16.6600,0.7009
16.6800,0.7022
16.7000,0.7034
16.7200,0.7046
16.7400,0.7059
16.7600,0.7071
16.7800,0.7084
16.8000,0.7096
16.8200,0.7108
16.8400,0.7121
16.8600,0.7133
16.8800,0.7146
16.9000,0.7158
16.9200,0.7170
16.9400,0.7183
16.9600,0.7195
16.9800,0.7208
17.0000,0.7220
17.0200,0.7206
17.0400,0.7193
17.0600,0.7179
17.0800,0.7166
17.1000,0.7152
17.1200,0.7138
17.1400,0.7125
17.1600,0.7111
17.1800,0.7098
17.2000,0.7084
17.2200,0.7070
17.2400,0.7057
17.2600,0.7043
17.2800,0.7030
17.3000,0.7016
17.3200,0.7002
17.3400,0.6989
17.3600,0.6975
17.3800,0.6962
17.4000,0.6948
17.4200,0.6934
17.4400,0.6921
17.4600,0.6907
17.4800,0.6894
17.5000,0.6880
17.5200,0.6862
17.5400,0.6844
17.5600,0.6826
17.5800,0.6808
17.6000,0.6790
17.6200,0.6772
17.6400,0.6754
17.6600,0.6736
17.6800,0.6718
17.7000,0.6700
17.7200,0.6682
17.7400,0.6664
17.7600,0.6646
17.7800,0.6628
17.8000,0.6610
17.8200,0.6592
17.8400,0.6574
17.8600,0.6556
17.8800,0.6538
17.9000,0.6520
17.9200,0.6502
17.9400,0.6484
17.9600,0.6466
17.9800,0.6448
18.0000,0.6430
18.0200,0.6428
18.0400,0.6425
18.0600,0.6423
18.0800,0.6420
18.1000,0.6418
18.1200,0.6416
18.1400,0.6413
18.1600,0.6411
18.1800,0.6408
18.2000,0.6406
18.2200,0.6404
18.2400,0.6401
18.2600,0.6399
18.2800,0.6396
18.3000,0.6394
18.3200,0.6392
18.3400,0.6389
18.3600,0.6387
18.3800,0.6384
18.4000,0.6382
18.4200,0.6380
18.4400,0.6377
18.4600,0.6375
18.4800,0.6372
18.5000,0.6370
18.5200,0.6357
18.5400,0.6344
18.5600,0.6332
18.5800,0.6319
18.6000,0.6306
18.6200,0.6293
18.6400,0.6280
18.6600,0.6268
18.6800,0.6255
18.7000,0.6242
18.7200,0.6229
18.7400,0.6216
18.7600,0.6204
18.7800,0.6191
18.8000,0.6178
18.8200,0.6165
18.8400,0.6152
18.8600,0.6140
18.8800,0.6127
18.9000,0.6114
18.9200,0.6101
18.9400,0.6088
18.9600,0.6076
18.9800,0.6063
19.0000,0.6050
19.0200,0.6049
19.0400,0.6048
19.0600,0.6046
19.0800,0.6045
19.1000,0.6044
19.1200,0.6043
19.1400,0.6042
19.1600,0.6040
19.1800,0.6039
19.2000,0.6038
19.2200,0.6037
19.2400,0.6036
19.2600,0.6034
19.2800,0.6033
19.3000,0.6032
19.3200,0.6031
19.3400,0.6030
19.3600,0.6028
19.3800,0.6027
19.4000,0.6026
19.4200,0.6025
19.4400,0.6024
19.4600,0.6022
19.4800,0.6021
19.5000,0.6020
19.5200,0.6005
19.5400,0.5990
19.5600,0.5974
19.5800,0.5959
19.6000,0.5944
19.6200,0.5929
19.6400,0.5914
19.6600,0.5898
19.6800,0.5883
19.7000,0.5868
19.7200,0.5853
19.7400,0.5838
19.7600,0.5822
19.7800,0.5807
19.8000,0.5792
19.8200,0.5777
19.8400,0.5762
19.8600,0.5746
19.8800,0.5731
19.9000,0.5716
19.9200,0.5701
19.9400,0.5686
19.9600,0.5670
19.9800,0.5655
20.0000,0.5640
20.0200,0.5645
20.0400,0.5650
20.0600,0.5654
20.0800,0.5659
20.1000,0.5664
20.1200,0.5669
20.1400,0.5674
20.1600,0.5678
20.1800,0.5683
20.2000,0.5688
20.2200,0.5693
20.2400,0.5698
20.2600,0.5702
20.2800,0.5707
20.3000,0.5712
20.3200,0.5717
20.3400,0.5722
20.3600,0.5726
20.3800,0.5731
20.4000,0.5736
20.4200,0.5741
20.4400,0.5746
20.4600,0.5750
20.4800,0.5755
20.5000,0.5760
20.5200,0.5762
20.5400,0.5764
20.5600,0.5766
20.5800,0.5768
20.6000,0.5770
20.6200,0.5772
20.6400,0.5774
20.6600,0.5776
20.6800,0.5778
20.7000,0.5780
20.7200,0.5782
20.7400,0.5784
20.7600,0.5786
20.7800,0.5788
20.8000,0.5790
20.8200,0.5792
20.8400,0.5794
20.8600,0.5796
20.8800,0.5798
20.9000,0.5800
20.9200,0.5802
20.9400,0.5804
20.9600,0.5806
20.9800,0.5808
21.0000,0.5810
21.0200,0.5819
21.0400,0.5828
21.0600,0.5836
21.0800,0.5845
21.1000,0.5854
21.1200,0.5863
21.1400,0.5872
21.1600,0.5880
21.1800,0.5889
21.2000,0.5898
21.2200,0.5907
21.2400,0.5916
21.2600,0.5924
21.2800,0.5933
21.3000,0.5942
21.3200,0.5951
21.3400,0.5960
21.3600,0.5968
21.3800,0.5977
21.4000,0.5986
21.4200,0.5995
21.4400,0.6004
21.4600,0.6012
21.4800,0.6021
21.5000,0.6030
21.5200,0.6025
21.5400,0.6020
21.5600,0.6014
21.5800,0.6009
21.6000,0.6004
21.6200,0.5999
21.6400,0.5994
21.6600,0.5988
21.6800,0.5983
21.7000,0.5978
21.7200,0.5973
21.7400,0.5968
21.7600,0.5962
21.7800,0.5957
21.8000,0.5952
21.8200,0.5947
21.8400,0.5942
21.8600,0.5936
21.8800,0.5931
21.9000,0.5926
21.9200,0.5921
21.9400,0.5916
21.9600,0.5910
21.9800,0.5905
22.0000,0.5900
22.0200,0.5897
22.0400,0.5894
22.0600,0.5892
22.0800,0.5889
22.1000,0.5886
22.1200,0.5883
22.1400,0.5880
22.1600,0.5878
22.1800,0.5875
22.2000,0.5872
22.2200,0.5869
22.2400,0.5866
22.2600,0.5864
22.2800,0.5861
22.3000,0.5858
22.3200,0.5855
22.3400,0.5852
22.3600,0.5850
22.3800,0.5847
22.4000,0.5844
22.4200,0.5841
22.4400,0.5838
22.4600,0.5836
22.4800,0.5833
22.5000,0.5830
22.5200,0.5821
22.5400,0.5812
22.5600,0.5802
22.5800,0.5793
22.6000,0.5784
22.6200,0.5775
22.6400,0.5766
22.6600,0.5756
22.6800,0.5747
22.7000,0.5738
22.7200,0.5729
22.7400,0.5720
22.7600,0.5710
22.7800,0.5701
22.8000,0.5692
22.8200,0.5683
22.8400,0.5674
22.8600,0.5664
22.8800,0.5655
22.9000,0.5646
22.9200,0.5637
22.9400,0.5628
22.9600,0.5618
22.9800,0.5609
23.0000,0.5600
23.0200,0.5587
23.0400,0.5574
23.0600,0.5560
23.0800,0.5547
23.1000,0.5534
23.1200,0.5521
23.1400,0.5508
23.1600,0.5494
23.1800,0.5481
23.2000,0.5468
23.2200,0.5455
23.2400,0.5442
23.2600,0.5428
23.2800,0.5415
23.3000,0.5402
23.3200,0.5389
23.3400,0.5376
23.3600,0.5362
23.3800,0.5349
23.4000,0.5336
23.4200,0.5323
23.4400,0.5310
23.4600,0.5296
23.4800,0.5283
23.5000,0.5270
23.5200,0.5265
23.5400,0.5260
23.5600,0.5254
23.5800,0.5249
23.6000,0.5244
23.6200,0.5239
23.6400,0.5234
23.6600,0.5228
23.6800,0.5223
23.7000,0.5218
23.7200,0.5213
23.7400,0.5208
23.7600,0.5202
23.7800,0.5197
23.8000,0.5192
23.8200,0.5187
23.8400,0.5182
23.8600,0.5176
23.8800,0.5171
23.9000,0.5166
23.9200,0.5161
23.9400,0.5156
23.9600,0.5150
23.9800,0.5145
24.0000,0.5140
24.0200,0.5124
24.0400,0.5107
24.0600,0.5091
24.0800,0.5074
24.1000,0.5058
24.1200,0.5042
24.1400,0.5025
24.1600,0.5009
24.1800,0.4992
24.2000,0.4976
24.2200,0.4960
24.2400,0.4943
24.2600,0.4927
24.2800,0.4910
24.3000,0.4894
24.3200,0.4878
24.3400,0.4861
24.3600,0.4845
24.3800,0.4828
24.4000,0.4812
24.4200,0.4796
24.4400,0.4779
24.4600,0.4763
24.4800,0.4746
24.5000,0.4730
24.5200,0.4710
24.5400,0.4689
24.5600,0.4669
24.5800,0.4648
24.6000,0.4628
24.6200,0.4608
24.6400,0.4587
24.6600,0.4567
24.6800,0.4546
24.7000,0.4526
24.7200,0.4506
24.7400,0.4485
24.7600,0.4465
24.7800,0.4444
24.8000,0.4424
24.8200,0.4404
24.8400,0.4383
24.8600,0.4363
24.8800,0.4342
24.9000,0.4322
24.9200,0.4302
24.9400,0.4281
24.9600,0.4261
24.9800,0.4240
25.0000,0.4220
25.0200,0.4200
25.0400,0.4181
25.0600,0.4161
25.0800,0.4142
25.1000,0.4122
25.1200,0.4102
25.1400,0.4083
25.1600,0.4063
25.1800,0.4044
25.2000,0.4024
25.2200,0.4004
25.2400,0.3985
25.2600,0.3965
25.2800,0.3946
25.3000,0.3926
25.3200,0.3906
25.3400,0.3887
25.3600,0.3867
25.3800,0.3848
25.4000,0.3828
25.4200,0.3808
25.4400,0.3789
25.4600,0.3769
25.4800,0.3750
25.5000,0.3730
25.5200,0.3711
25.5400,0.3692
25.5600,0.3672
25.5800,0.3653
25.6000,0.3634
25.6200,0.3615
25.6400,0.3596
25.6600,0.3576
25.6800,0.3557
25.7000,0.3538
25.7200,0.3519
25.7400,0.3500
25.7600,0.3480
25.7800,0.3461
25.8000,0.3442
25.8200,0.3423
25.8400,0.3404
25.8600,0.3384
25.8800,0.3365
25.9000,0.3346
25.9200,0.3327
25.9400,0.3308
25.9600,0.3288
25.9800,0.3269
26.0000,0.3250
26.0200,0.3227
26.0400,0.3204
26.0600,0.3182
26.0800,0.3159
26.1000,0.3136
26.1200,0.3113
26.1400,0.3090
26.1600,0.3068
26.1800,0.3045
26.2000,0.3022
26.2200,0.2999
26.2400,0.2976
26.2600,0.2954
26.2800,0.2931
26.3000,0.2908
26.3200,0.2885
26.3400,0.2862
26.3600,0.2840
26.3800,0.2817
26.4000,0.2794
26.4200,0.2771
26.4400,0.2748
26.4600,0.2726
26.4800,0.2703
26.5000,0.2680
26.5200,0.2648
26.5400,0.2617
26.5600,0.2585
26.5800,0.2554
26.6000,0.2522
26.6200,0.2490
26.6400,0.2459
26.6600,0.2427
26.6800,0.2396
26.7000,0.2364
26.7200,0.2332
26.7400,0.2301
26.7600,0.2269
26.7800,0.2238
26.8000,0.2206
26.8200,0.2174
26.8400,0.2143
26.8600,0.2111
26.8800,0.2080
26.9000,0.2048
26.9200,0.2016
26.9400,0.1985
26.9600,0.1953
26.9800,0.1922
27.0000,0.1890
27.0200,0.1869
27.0400,0.1848
27.0600,0.1828
27.0800,0.1807
27.1000,0.1786
27.1200,0.1765
27.1400,0.1744
27.1600,0.1724
27.1800,0.1703
27.2000,0.1682
27.2200,0.1661
27.2400,0.1640
27.2600,0.1620
27.2800,0.1599
27.3000,0.1578
27.3200,0.1557
27.3400,0.1536
27.3600,0.1516
27.3800,0.1495
27.4000,0.1474
27.4200,0.1453
27.4400,0.1432
27.4600,0.1412
27.4800,0.1391
27.5000,0.1370
27.5200,0.1349
27.5400,0.1328
27.5600,0.1306
27.5800,0.1285
27.6000,0.1264
27.6200,0.1243
27.6400,0.1222
27.6600,0.1200
27.6800,0.1179
27.7000,0.1158
27.7200,0.1137
27.7400,0.1116
27.7600,0.1094
27.7800,0.1073
27.8000,0.1052
27.8200,0.1031
27.8400,0.1010
27.8600,0.0988
27.8800,0.0967
27.9000,0.0946
27.9200,0.0925
27.9400,0.0904
27.9600,0.0882
27.9800,0.0861
28.0000,0.0840
28.0200,0.0830
28.0400,0.0821
28.0600,0.0811
28.0800,0.0802
28.1000,0.0792
28.1200,0.0782
28.1400,0.0773
28.1600,0.0763
28.1800,0.0754
28.2000,0.0744
28.2200,0.0734
28.2400,0.0725
28.2600,0.0715
28.2800,0.0706
28.3000,0.0696
28.3200,0.0686
28.3400,0.0677
28.3600,0.0667
28.3800,0.0658
28.4000,0.0648
28.4200,0.0638
28.4400,0.0629
28.4600,0.0619
28.4800,0.0610
28.5000,0.0600
28.5200,0.0593
28.5400,0.0586
28.5600,0.0580
28.5800,0.0573
28.6000,0.0566
28.6200,0.0559
28.6400,0.0552
28.6600,0.0546
28.6800,0.0539
28.7000,0.0532
28.7200,0.0525
28.7400,0.0518
28.7600,0.0512
28.7800,0.0505
28.8000,0.0498
28.8200,0.0491
28.8400,0.0484
28.8600,0.0478
28.8800,0.0471
28.9000,0.0464
28.9200,0.0457
28.9400,0.0450
28.9600,0.0444
28.9800,0.0437
29.0000,0.0430
29.0200,0.0424
29.0400,0.0418
29.0600,0.0412
29.0800,0.0406
29.1000,0.0400
29.1200,0.0394
29.1400,0.0388
29.1600,0.0382
29.1800,0.0376
29.2000,0.0370
29.2200,0.0364
29.2400,0.0358
29.2600,0.0352
29.2800,0.0346
29.3000,0.0340
29.3200,0.0334
29.3400,0.0328
29.3600,0.0322
29.3800,0.0316
29.4000,0.0310
29.4200,0.0304
29.4400,0.0298
29.4600,0.0292
29.4800,0.0286
29.5000,0.0280
29.5200,0.0276
29.5400,0.0272
29.5600,0.0268
29.5800,0.0264
29.6000,0.0260
29.6200,0.0256
29.6400,0.0252
29.6600,0.0248
29.6800,0.0244
29.7000,0.0240
29.7200,0.0236
29.7400,0.0232
29.7600,0.0228
29.7800,0.0224
29.8000,0.0220
29.8200,0.0216
29.8400,0.0212
29.8600,0.0208
29.8800,0.0204
29.9000,0.0200
29.9200,0.0196
29.9400,0.0192
29.9600,0.0188
29.9800,0.0184
30.0000,0.0180
30.0200,0.0176
30.0400,0.0172
30.0600,0.0168
30.0800,0.0164
30.1000,0.0160
30.1200,0.0156
30.1400,0.0152
30.1600,0.0148
30.1800,0.0144
30.2000,0.0140
30.2200,0.0136
30.2400,0.0132
30.2600,0.0128
30.2800,0.0124
30.3000,0.0120
30.3200,0.0116
30.3400,0.0112
30.3600,0.0108
30.3800,0.0104
30.4000,0.0100
30.4200,0.0096
30.4400,0.0092
30.4600,0.0088
30.4800,0.0084
30.5000,0.0080
30.5200,0.0076
30.5400,0.0072
30.5600,0.0068
30.5800,0.0064
30.6000,0.0060
30.6200,0.0056
30.6400,0.0052
30.6600,0.0048
30.6800,0.0044
30.7000,0.0040
30.7200,0.0036
30.7400,0.0032
30.7600,0.0028
30.7800,0.0024
30.8000,0.0020
30.8200,0.0016
30.8400,0.0012
30.8600,0.0008
30.8800,0.0004
30.9000,0.0000
30.9200,-0.0004
30.9400,-0.0008
30.9600,-0.0012
30.9800,-0.0016
31.0000,-0.0020
31.0200,-0.0024
31.0400,-0.0028
31.0600,-0.0032
31.0800,-0.0036
31.1000,-0.0040
31.1200,-0.0044
31.1400,-0.0048
31.1600,-0.0052
31.1800,-0.0056
31.2000,-0.0060
31.2200,-0.0064
31.2400,-0.0068
31.2600,-0.0072
31.2800,-0.0076
31.3000,-0.0080
31.3200,-0.0084
31.3400,-0.0088
31.3600,-0.0092
31.3800,-0.0096
31.4000,-0.0100
31.4200,-0.0104
31.4400,-0.0108
31.4600,-0.0112
31.4800,-0.0116
31.5000,-0.0120
31.5200,-0.0124
31.5400,-0.0128
31.5600,-0.0132
31.5800,-0.0136
31.6000,-0.0140
31.6200,-0.0144
31.6400,-0.0148
31.6600,-0.0152
31.6800,-0.0156
31.7000,-0.0160
31.7200,-0.0164
31.7400,-0.0168
31.7600,-0.0172
31.7800,-0.0176
31.8000,-0.0180
31.8200,-0.0184
31.8400,-0.0188
31.8600,-0.0192
31.8800,-0.0196
31.9000,-0.0200
31.9200,-0.0204
31.9400,-0.0208
31.9600,-0.0212
31.9800,-0.0216
32.0000,-0.0220
32.0200,-0.0224
32.0400,-0.0228
32.0600,-0.0232
32.0800,-0.0236
32.1000,-0.0240
32.1200,-0.0244
32.1400,-0.0248
32.1600,-0.0252
32.1800,-0.0256
32.2000,-0.0260
32.2200,-0.0264
32.2400,-0.0268
32.2600,-0.0272
32.2800,-0.0276
32.3000,-0.0280
32.3200,-0.0284
32.3400,-0.0288
32.3600,-0.0292
32.3800,-0.0296
32.4000,-0.0300
32.4200,-0.0304
32.4400,-0.0308
32.4600,-0.0312
32.4800,-0.0316
32.5000,-0.0320
32.5200,-0.0324
32.5400,-0.0328
32.5600,-0.0332
32.5800,-0.0336
32.6000,-0.0340
32.6200,-0.0344
32.6400,-0.0348
32.6600,-0.0352
32.6800,-0.0356
32.7000,-0.0360
32.7200,-0.0364
32.7400,-0.0368
32.7600,-0.0372
32.7800,-0.0376
32.8000,-0.0380
32.8200,-0.0384
32.8400,-0.0388
32.8600,-0.0392
32.8800,-0.0396
32.9000,-0.0400
32.9200,-0.0404
32.9400,-0.0408
32.9600,-0.0412
32.9800,-0.0416
33.0000,-0.0420
33.0200,-0.0424
33.0400,-0.0428
33.0600,-0.0432
33.0800,-0.0436
33.1000,-0.0440
33.1200,-0.0444
33.1400,-0.0448
33.1600,-0.0452
33.1800,-0.0456
33.2000,-0.0460
33.2200,-0.0464
33.2400,-0.0468
33.2600,-0.0472
33.2800,-0.0476
33.3000,-0.0480
33.3200,-0.0484
33.3400,-0.0488
33.3600,-0.0492
33.3800,-0.0496
33.4000,-0.0500
33.4200,-0.0504
33.4400,-0.0508
33.4600,-0.0512
33.4800,-0.0516
33.5000,-0.0520
33.5200,-0.0524
33.5400,-0.0528
33.5600,-0.0532
33.5800,-0.0536
33.6000,-0.0540
33.6200,-0.0544
33.6400,-0.0548
33.6600,-0.0552
33.6800,-0.0556
33.7000,-0.0560
33.7200,-0.0564
33.7400,-0.0568
33.7600,-0.0572
33.7800,-0.0576
33.8000,-0.0580
33.8200,-0.0584
33.8400,-0.0588
33.8600,-0.0592
33.8800,-0.0596
33.9000,-0.0600
33.9200,-0.0604
33.9400,-0.0608
33.9600,-0.0612
33.9800,-0.0616
34.0000,-0.0620
34.0200,-0.0624
34.0400,-0.0628
34.0600,-0.0632
34.0800,-0.0636
34.1000,-0.0640
34.1200,-0.0644
34.1400,-0.0648
34.1600,-0.0652
34.1800,-0.0656
34.2000,-0.0660
34.2200,-0.0664
34.2400,-0.0668
34.2600,-0.0672
34.2800,-0.0676
34.3000,-0.0680
34.3200,-0.0684
34.3400,-0.0688
34.3600,-0.0692
34.3800,-0.0696
34.4000,-0.0700
34.4200,-0.0704
34.4400,-0.0708
34.4600,-0.0712
34.4800,-0.0716
34.5000,-0.0720
34.5200,-0.0724
34.5400,-0.0728
34.5600,-0.0732
34.5800,-0.0736
34.6000,-0.0740
34.6200,-0.0744
34.6400,-0.0748
34.6600,-0.0752
34.6800,-0.0756
34.7000,-0.0760
34.7200,-0.0764
34.7400,-0.0768
34.7600,-0.0772
34.7800,-0.0776
34.8000,-0.0780
34.8200,-0.0784
34.8400,-0.0788
34.8600,-0.0792
34.8800,-0.0796
34.9000,-0.0800
34.9200,-0.0804
34.9400,-0.0808
34.9600,-0.0812
34.9800,-0.0816
