# #Wavelength,QE
# #micron,none
0.5000,0.6818
0.5010,0.6831
0.5020,0.6845
0.5030,0.6858
0.5040,0.6871
0.5050,0.6885
0.5060,0.6898
0.5070,0.6911
0.5080,0.6925
0.5090,0.6938
0.5100,0.6951
0.5110,0.6965
0.5120,0.6978
0.5130,0.6991
0.5140,0.7004
0.5150,0.7018
0.5160,0.7031
0.5170,0.7044
0.5180,0.7058
0.5190,0.7071
0.5200,0.7084
0.5210,0.7097
0.5220,0.7111
0.5230,0.7124
0.5240,0.7137
0.5250,0.7150
0.5260,0.7164
0.5270,0.7177
0.5280,0.7190
0.5290,0.7203
0.5300,0.7217
0.5310,0.7230
0.5320,0.7243
0.5330,0.7256
0.5340,0.7270
0.5350,0.7283
0.5360,0.7296
0.5370,0.7309
0.5380,0.7322
0.5390,0.7336
0.5400,0.7349
0.5410,0.7362
0.5420,0.7376
0.5430,0.7389
0.5440,0.7402
0.5450,0.7415
0.5460,0.7429
0.5470,0.7442
0.5480,0.7455
0.5490,0.7468
0.5500,0.7482
0.5510,0.7495
0.5520,0.7508
0.5530,0.7522
0.5540,0.7535
0.5550,0.7548
0.5560,0.7562
0.5570,0.7575
0.5580,0.7588
0.5590,0.7602
0.5600,0.7615
0.5610,0.7629
0.5620,0.7642
0.5630,0.7655
0.5640,0.7669
0.5650,0.7682
0.5660,0.7695
0.5670,0.7709
0.5680,0.7722
0.5690,0.7736
0.5700,0.7749
0.5710,0.7762
0.5720,0.7776
0.5730,0.7789
0.5740,0.7802
0.5750,0.7815
0.5760,0.7829
0.5770,0.7842
0.5780,0.7855
0.5790,0.7868
0.5800,0.7881
0.5810,0.7894
0.5820,0.7907
0.5830,0.7920
0.5840,0.7933
0.5850,0.7946
0.5860,0.7959
0.5870,0.7972
0.5880,0.7985
0.5890,0.7997
0.5900,0.8010
0.5910,0.8023
0.5920,0.8035
0.5930,0.8048
0.5940,0.8060
0.5950,0.8073
0.5960,0.8085
0.5970,0.8097
0.5980,0.8110
0.5990,0.8122
0.6000,0.8134
0.6010,0.8146
0.6020,0.8158
0.6030,0.8170
0.6040,0.8182
0.6050,0.8194
0.6060,0.8206
0.6070,0.8218
0.6080,0.8229
0.6090,0.8241
0.6100,0.8252
0.6110,0.8264
0.6120,0.8275
0.6130,0.8287
0.6140,0.8298
0.6150,0.8309
0.6160,0.8320
0.6170,0.8331
0.6180,0.8342
0.6190,0.8353
0.6200,0.8364
0.6210,0.8375
0.6220,0.8386
0.6230,0.8396
0.6240,0.8407
0.6250,0.8417
0.6260,0.8428
0.6270,0.8438
0.6280,0.8448
0.6290,0.8458
0.6300,0.8469
0.6310,0.8478
0.6320,0.8488
0.6330,0.8498
0.6340,0.8508
0.6350,0.8517
0.6360,0.8527
0.6370,0.8536
0.6380,0.8546
0.6390,0.8555
0.6400,0.8564
0.6410,0.8573
0.6420,0.8582
0.6430,0.8591
0.6440,0.8600
0.6450,0.8608
0.6460,0.8617
0.6470,0.8625
0.6480,0.8634
0.6490,0.8642
0.6500,0.8650
0.6510,0.8658
0.6520,0.8666
0.6530,0.8674
0.6540,0.8682
0.6550,0.8689
0.6560,0.8697
0.6570,0.8704
0.6580,0.8712
0.6590,0.8719
0.6600,0.8726
0.6610,0.8733
0.6620,0.8740
0.6630,0.8747
0.6640,0.8754
0.6650,0.8760
0.6660,0.8767
0.6670,0.8774
0.6680,0.8780
0.6690,0.8786
0.6700,0.8793
0.6710,0.8799
0.6720,0.8805
0.6730,0.8811
0.6740,0.8817
0.6750,0.8823
0.6760,0.8829
0.6770,0.8834
0.6780,0.8840
0.6790,0.8846
0.6800,0.8851
0.6810,0.8856
0.6820,0.8862
0.6830,0.8867
0.6840,0.8872
0.6850,0.8877
0.6860,0.8882
0.6870,0.8887
0.6880,0.8892
0.6890,0.8896
0.6900,0.8901
0.6910,0.8905
0.6920,0.8909
0.6930,0.8914
0.6940,0.8918
0.6950,0.8922
0.6960,0.8926
0.6970,0.8929
0.6980,0.8933
0.6990,0.8936
0.7000,0.8940
0.7010,0.8943
0.7020,0.8946
0.7030,0.8949
0.7040,0.8952
0.7050,0.8955
0.7060,0.8957
0.7070,0.8960
0.7080,0.8962
0.7090,0.8964
0.7100,0.8966
0.7110,0.8968
0.7120,0.8970
0.7130,0.8971
0.7140,0.8973
0.7150,0.8974
0.7160,0.8975
0.7170,0.8976
0.7180,0.8977
0.7190,0.8977
0.7200,0.8978
0.7210,0.8978
0.7220,0.8978
0.7230,0.8978
0.7240,0.8978
0.7250,0.8978
0.7260,0.8977
0.7270,0.8977
0.7280,0.8976
0.7290,0.8975
0.7300,0.8973
0.7310,0.8972
0.7320,0.8970
0.7330,0.8969
0.7340,0.8967
0.7350,0.8964
0.7360,0.8962
0.7370,0.8959
0.7380,0.8957
0.7390,0.8954
0.7400,0.8951
0.7410,0.8947
0.7420,0.8944
0.7430,0.8940
0.7440,0.8936
0.7450,0.8932
0.7460,0.8927
0.7470,0.8923
0.7480,0.8918
0.7490,0.8913
0.7500,0.8908
0.7510,0.8902
0.7520,0.8896
0.7530,0.8890
0.7540,0.8884
0.7550,0.8878
0.7560,0.8871
0.7570,0.8864
0.7580,0.8857
0.7590,0.8850
0.7600,0.8842
0.7610,0.8834
0.7620,0.8826
0.7630,0.8818
0.7640,0.8809
0.7650,0.8801
0.7660,0.8792
0.7670,0.8782
0.7680,0.8773
0.7690,0.8763
0.7700,0.8753
0.7710,0.8743
0.7720,0.8733
0.7730,0.8722
0.7740,0.8711
0.7750,0.8700
0.7760,0.8689
0.7770,0.8678
0.7780,0.8666
0.7790,0.8654
0.7800,0.8643
0.7810,0.8630
0.7820,0.8618
0.7830,0.8606
0.7840,0.8593
0.7850,0.8581
0.7860,0.8568
0.7870,0.8555
0.7880,0.8542
0.7890,0.8529
0.7900,0.8515
0.7910,0.8502
0.7920,0.8488
0.7930,0.8475
0.7940,0.8461
0.7950,0.8448
0.7960,0.8434
0.7970,0.8420
0.7980,0.8406
0.7990,0.8392
0.8000,0.8378
0.8010,0.8364
0.8020,0.8350
0.8030,0.8336
0.8040,0.8321
0.8050,0.8307
0.8060,0.8293
0.8070,0.8279
0.8080,0.8265
0.8090,0.8250
0.8100,0.8236
0.8110,0.8222
0.8120,0.8208
0.8130,0.8194
0.8140,0.8180
0.8150,0.8166
0.8160,0.8152
0.8170,0.8138
0.8180,0.8124
0.8190,0.8110
0.8200,0.8097
0.8210,0.8083
0.8220,0.8069
0.8230,0.8056
0.8240,0.8043
0.8250,0.8029
0.8260,0.8016
0.8270,0.8003
0.8280,0.7990
0.8290,0.7978
0.8300,0.7965
0.8310,0.7953
0.8320,0.7940
0.8330,0.7928
0.8340,0.7916
0.8350,0.7904
0.8360,0.7893
0.8370,0.7881
0.8380,0.7870
0.8390,0.7859
0.8400,0.7848
0.8410,0.7837
0.8420,0.7827
0.8430,0.7817
0.8440,0.7807
0.8450,0.7797
0.8460,0.7787
0.8470,0.7778
0.8480,0.7769
0.8490,0.7760
0.8500,0.7751
0.8510,0.7743
0.8520,0.7735
0.8530,0.7727
0.8540,0.7719
0.8550,0.7712
0.8560,0.7705
0.8570,0.7698
0.8580,0.7692
0.8590,0.7685
0.8600,0.7679
0.8610,0.7674
0.8620,0.7668
0.8630,0.7663
0.8640,0.7658
0.8650,0.7654
0.8660,0.7649
0.8670,0.7645
0.8680,0.7641
0.8690,0.7638
0.8700,0.7634
0.8710,0.7631
0.8720,0.7629
0.8730,0.7626
0.8740,0.7624
0.8750,0.7622
0.8760,0.7621
0.8770,0.7619
0.8780,0.7618
0.8790,0.7617
0.8800,0.7616
0.8810,0.7616
0.8820,0.7615
0.8830,0.7615
0.8840,0.7616
0.8850,0.7616
0.8860,0.7617
0.8870,0.7618
0.8880,0.7619
0.8890,0.7620
0.8900,0.7621
0.8910,0.7623
0.8920,0.7625
0.8930,0.7627
0.8940,0.7630
0.8950,0.7632
0.8960,0.7635
0.8970,0.7638
0.8980,0.7641
0.8990,0.7644
0.9000,0.7647
0.9010,0.7651
0.9020,0.7655
0.9030,0.7659
0.9040,0.7663
0.9050,0.7667
0.9060,0.7671
0.9070,0.7676
0.9080,0.7680
0.9090,0.7685
0.9100,0.7690
0.9110,0.7695
0.9120,0.7701
0.9130,0.7706
0.9140,0.7712
0.9150,0.7717
0.9160,0.7723
0.9170,0.7729
0.9180,0.7735
0.9190,0.7741
0.9200,0.7748
0.9210,0.7754
0.9220,0.7760
0.9230,0.7767
0.9240,0.7774
0.9250,0.7781
0.9260,0.7787
0.9270,0.7794
0.9280,0.7801
0.9290,0.7809
0.9300,0.7816
0.9310,0.7823
0.9320,0.7830
0.9330,0.7838
0.9340,0.7845
0.9350,0.7853
0.9360,0.7861
0.9370,0.7868
0.9380,0.7876
0.9390,0.7884
0.9400,0.7892
0.9410,0.7900
0.9420,0.7908
0.9430,0.7916
0.9440,0.7924
0.9450,0.7932
0.9460,0.7940
0.9470,0.7949
0.9480,0.7957
0.9490,0.7965
0.9500,0.7973
0.9510,0.7982
0.9520,0.7990
0.9530,0.7998
0.9540,0.8007
0.9550,0.8015
0.9560,0.8024
0.9570,0.8032
0.9580,0.8041
0.9590,0.8049
0.9600,0.8058
0.9610,0.8066
0.9620,0.8075
0.9630,0.8083
0.9640,0.8092
0.9650,0.8100
0.9660,0.8109
0.9670,0.8118
0.9680,0.8126
0.9690,0.8135
0.9700,0.8144
0.9710,0.8152
0.9720,0.8161
0.9730,0.8169
0.9740,0.8178
0.9750,0.8187
0.9760,0.8195
0.9770,0.8204
0.9780,0.8213
0.9790,0.8221
0.9800,0.8230
0.9810,0.8239
0.9820,0.8247
0.9830,0.8256
0.9840,0.8264
0.9850,0.8273
0.9860,0.8282
0.9870,0.8290
0.9880,0.8299
0.9890,0.8308
0.9900,0.8316
0.9910,0.8325
0.9920,0.8333
0.9930,0.8342
0.9940,0.8351
0.9950,0.8359
0.9960,0.8368
0.9970,0.8376
0.9980,0.8385
0.9990,0.8393
1.0000,0.8402
1.0010,0.8411
1.0020,0.8419
1.0030,0.8428
1.0040,0.8436
1.0050,0.8445
1.0060,0.8453
1.0070,0.8461
1.0080,0.8470
1.0090,0.8478
1.0100,0.8487
1.0110,0.8495
1.0120,0.8503
1.0130,0.8512
1.0140,0.8520
1.0150,0.8528
1.0160,0.8537
1.0170,0.8545
1.0180,0.8553
1.0190,0.8562
1.0200,0.8570
1.0210,0.8578
1.0220,0.8586
1.0230,0.8594
1.0240,0.8602
1.0250,0.8610
1.0260,0.8619
1.0270,0.8627
1.0280,0.8635
1.0290,0.8643
1.0300,0.8651
1.0310,0.8659
1.0320,0.8666
1.0330,0.8674
1.0340,0.8682
1.0350,0.8690
1.0360,0.8698
1.0370,0.8706
1.0380,0.8713
1.0390,0.8721
1.0400,0.8729
1.0410,0.8736
1.0420,0.8744
1.0430,0.8751
1.0440,0.8759
1.0450,0.8767
1.0460,0.8774
1.0470,0.8781
1.0480,0.8789
1.0490,0.8796
1.0500,0.8803
1.0510,0.8811
1.0520,0.8818
1.0530,0.8825
1.0540,0.8832
1.0550,0.8839
1.0560,0.8847
1.0570,0.8854
1.0580,0.8861
1.0590,0.8868
1.0600,0.8874
1.0610,0.8881
1.0620,0.8888
1.0630,0.8895
1.0640,0.8902
1.0650,0.8908
1.0660,0.8915
1.0670,0.8922
1.0680,0.8928
1.0690,0.8935
1.0700,0.8941
1.0710,0.8947
1.0720,0.8954
1.0730,0.8960
1.0740,0.8966
1.0750,0.8973
1.0760,0.8979
1.0770,0.8985
1.0780,0.8991
1.0790,0.8997
1.0800,0.9003
1.0810,0.9009
1.0820,0.9014
1.0830,0.9020
1.0840,0.9026
1.0850,0.9032
1.0860,0.9037
1.0870,0.9043
1.0880,0.9048
1.0890,0.9054
1.0900,0.9059
1.0910,0.9064
1.0920,0.9069
1.0930,0.9075
1.0940,0.9080
1.0950,0.9085
1.0960,0.9090
1.0970,0.9095
1.0980,0.9100
1.0990,0.9104
1.1000,0.9109
1.1010,0.9114
1.1020,0.9118
1.1030,0.9123
1.1040,0.9127
1.1050,0.9132
1.1060,0.9136
1.1070,0.9140
1.1080,0.9145
1.1090,0.9149
1.1100,0.9153
1.1110,0.9157
1.1120,0.9161
1.1130,0.9164
1.1140,0.9168
1.1150,0.9172
1.1160,0.9176
1.1170,0.9179
1.1180,0.9183
1.1190,0.9186
1.1200,0.9189
1.1210,0.9193
1.1220,0.9196
1.1230,0.9199
1.1240,0.9202
1.1250,0.9205
1.1260,0.9208
1.1270,0.9210
1.1280,0.9213
1.1290,0.9216
1.1300,0.9218
1.1310,0.9221
1.1320,0.9223
1.1330,0.9225
1.1340,0.9227
1.1350,0.9230
1.1360,0.9232
1.1370,0.9234
1.1380,0.9236
1.1390,0.9237
1.1400,0.9239
1.1410,0.9241
1.1420,0.9242
1.1430,0.9244
1.1440,0.9245
1.1450,0.9247
1.1460,0.9248
1.1470,0.9249
1.1480,0.9250
1.1490,0.9251
1.1500,0.9252
1.1510,0.9253
1.1520,0.9254
1.1530,0.9254
1.1540,0.9255
1.1550,0.9255
1.1560,0.9256
1.1570,0.9256
1.1580,0.9256
1.1590,0.9257
1.1600,0.9257
1.1610,0.9257
1.1620,0.9257
1.1630,0.9257
1.1640,0.9257
1.1650,0.9256
1.1660,0.9256
1.1670,0.9256
1.1680,0.9255
1.1690,0.9255
1.1700,0.9254
1.1710,0.9253
1.1720,0.9253
1.1730,0.9252
1.1740,0.9251
1.1750,0.9250
1.1760,0.9249
1.1770,0.9248
1.1780,0.9247
1.1790,0.9245
1.1800,0.9244
1.1810,0.9243
1.1820,0.9241
1.1830,0.9240
1.1840,0.9238
1.1850,0.9236
1.1860,0.9235
1.1870,0.9233
1.1880,0.9231
1.1890,0.9229
1.1900,0.9227
1.1910,0.9225
1.1920,0.9223
1.1930,0.9221
1.1940,0.9219
1.1950,0.9216
1.1960,0.9214
1.1970,0.9212
1.1980,0.9209
1.1990,0.9207
1.2000,0.9204
1.2010,0.9202
1.2020,0.9199
1.2030,0.9196
1.2040,0.9193
1.2050,0.9190
1.2060,0.9188
1.2070,0.9185
1.2080,0.9182
1.2090,0.9179
1.2100,0.9175
1.2110,0.9172
1.2120,0.9169
1.2130,0.9166
1.2140,0.9162
1.2150,0.9159
1.2160,0.9156
1.2170,0.9152
1.2180,0.9149
1.2190,0.9145
1.2200,0.9141
1.2210,0.9138
1.2220,0.9134
1.2230,0.9130
1.2240,0.9127
1.2250,0.9123
1.2260,0.9119
1.2270,0.9115
1.2280,0.9111
1.2290,0.9107
1.2300,0.9103
1.2310,0.9099
1.2320,0.9094
1.2330,0.9090
1.2340,0.9086
1.2350,0.9082
1.2360,0.9077
1.2370,0.9073
1.2380,0.9069
1.2390,0.9064
1.2400,0.9060
1.2410,0.9055
1.2420,0.9051
1.2430,0.9046
1.2440,0.9042
1.2450,0.9037
1.2460,0.9032
1.2470,0.9027
1.2480,0.9023
1.2490,0.9018
1.2500,0.9013
1.2510,0.9008
1.2520,0.9003
1.2530,0.8998
1.2540,0.8993
1.2550,0.8988
1.2560,0.8983
1.2570,0.8978
1.2580,0.8973
1.2590,0.8968
1.2600,0.8963
1.2610,0.8958
1.2620,0.8953
1.2630,0.8948
1.2640,0.8942
1.2650,0.8937
1.2660,0.8932
1.2670,0.8926
1.2680,0.8921
1.2690,0.8916
1.2700,0.8910
1.2710,0.8905
1.2720,0.8900
1.2730,0.8894
1.2740,0.8889
1.2750,0.8883
1.2760,0.8878
1.2770,0.8872
1.2780,0.8867
1.2790,0.8861
1.2800,0.8855
1.2810,0.8850
1.2820,0.8844
1.2830,0.8839
1.2840,0.8833
1.2850,0.8827
1.2860,0.8822
1.2870,0.8816
1.2880,0.8810
1.2890,0.8804
1.2900,0.8799
1.2910,0.8793
1.2920,0.8787
1.2930,0.8781
1.2940,0.8776
1.2950,0.8770
1.2960,0.8764
1.2970,0.8758
1.2980,0.8752
1.2990,0.8747
1.3000,0.8741
1.3010,0.8735
1.3020,0.8729
1.3030,0.8723
1.3040,0.8717
1.3050,0.8711
1.3060,0.8706
1.3070,0.8700
1.3080,0.8694
1.3090,0.8688
1.3100,0.8682
1.3110,0.8676
1.3120,0.8670
1.3130,0.8664
1.3140,0.8658
1.3150,0.8652
1.3160,0.8646
1.3170,0.8641
1.3180,0.8635
1.3190,0.8629
1.3200,0.8623
1.3210,0.8617
1.3220,0.8611
1.3230,0.8605
1.3240,0.8599
1.3250,0.8593
1.3260,0.8587
1.3270,0.8581
1.3280,0.8576
1.3290,0.8570
1.3300,0.8564
1.3310,0.8558
1.3320,0.8552
1.3330,0.8546
1.3340,0.8540
1.3350,0.8534
1.3360,0.8528
1.3370,0.8523
1.3380,0.8517
1.3390,0.8511
1.3400,0.8505
1.3410,0.8499
1.3420,0.8493
1.3430,0.8487
1.3440,0.8482
1.3450,0.8476
1.3460,0.8470
1.3470,0.8464
1.3480,0.8458
1.3490,0.8452
1.3500,0.8447
1.3510,0.8441
1.3520,0.8435
1.3530,0.8429
1.3540,0.8424
1.3550,0.8418
1.3560,0.8412
1.3570,0.8406
1.3580,0.8401
1.3590,0.8395
1.3600,0.8389
1.3610,0.8383
1.3620,0.8378
1.3630,0.8372
1.3640,0.8366
1.3650,0.8361
1.3660,0.8355
1.3670,0.8349
1.3680,0.8344
1.3690,0.8338
1.3700,0.8333
1.3710,0.8327
1.3720,0.8321
1.3730,0.8316
1.3740,0.8310
1.3750,0.8305
1.3760,0.8299
1.3770,0.8294
1.3780,0.8288
1.3790,0.8283
1.3800,0.8277
1.3810,0.8272
1.3820,0.8266
1.3830,0.8261
1.3840,0.8255
1.3850,0.8250
1.3860,0.8244
1.3870,0.8239
1.3880,0.8234
1.3890,0.8228
1.3900,0.8223
1.3910,0.8217
1.3920,0.8212
1.3930,0.8207
1.3940,0.8201
1.3950,0.8196
1.3960,0.8191
1.3970,0.8186
1.3980,0.8180
1.3990,0.8175
1.4000,0.8170
1.4010,0.8165
1.4020,0.8159
1.4030,0.8154
1.4040,0.8149
1.4050,0.8144
1.4060,0.8139
1.4070,0.8134
1.4080,0.8129
1.4090,0.8123
1.4100,0.8118
1.4110,0.8113
1.4120,0.8108
1.4130,0.8103
1.4140,0.8098
1.4150,0.8093
1.4160,0.8088
1.4170,0.8083
1.4180,0.8078
1.4190,0.8074
1.4200,0.8069
1.4210,0.8064
1.4220,0.8059
1.4230,0.8054
1.4240,0.8049
1.4250,0.8044
1.4260,0.8040
1.4270,0.8035
1.4280,0.8030
1.4290,0.8025
1.4300,0.8021
1.4310,0.8016
1.4320,0.8011
1.4330,0.8007
1.4340,0.8002
1.4350,0.7997
1.4360,0.7993
1.4370,0.7988
1.4380,0.7984
1.4390,0.7979
1.4400,0.7975
1.4410,0.7970
1.4420,0.7966
1.4430,0.7961
1.4440,0.7957
1.4450,0.7952
1.4460,0.7948
1.4470,0.7944
1.4480,0.7939
1.4490,0.7935
1.4500,0.7931
1.4510,0.7926
1.4520,0.7922
1.4530,0.7918
1.4540,0.7914
1.4550,0.7909
1.4560,0.7905
1.4570,0.7901
1.4580,0.7897
1.4590,0.7893
1.4600,0.7889
1.4610,0.7885
1.4620,0.7881
1.4630,0.7877
1.4640,0.7873
1.4650,0.7869
1.4660,0.7865
1.4670,0.7861
1.4680,0.7857
1.4690,0.7853
1.4700,0.7849
1.4710,0.7846
1.4720,0.7842
1.4730,0.7838
1.4740,0.7834
1.4750,0.7831
1.4760,0.7827
1.4770,0.7823
1.4780,0.7820
1.4790,0.7816
1.4800,0.7813
1.4810,0.7809
1.4820,0.7806
1.4830,0.7802
1.4840,0.7799
1.4850,0.7795
1.4860,0.7792
1.4870,0.7788
1.4880,0.7785
1.4890,0.7782
1.4900,0.7778
1.4910,0.7775
1.4920,0.7772
1.4930,0.7769
1.4940,0.7765
1.4950,0.7762
1.4960,0.7759
1.4970,0.7756
1.4980,0.7753
1.4990,0.7750
1.5000,0.7747
1.5010,0.7744
1.5020,0.7741
1.5030,0.7738
1.5040,0.7735
1.5050,0.7732
1.5060,0.7730
1.5070,0.7727
1.5080,0.7724
1.5090,0.7721
1.5100,0.7719
1.5110,0.7716
1.5120,0.7713
1.5130,0.7711
1.5140,0.7708
1.5150,0.7706
1.5160,0.7703
1.5170,0.7701
1.5180,0.7698
1.5190,0.7696
1.5200,0.7693
1.5210,0.7691
1.5220,0.7688
1.5230,0.7686
1.5240,0.7684
1.5250,0.7682
1.5260,0.7679
1.5270,0.7677
1.5280,0.7675
1.5290,0.7673
1.5300,0.7671
1.5310,0.7669
1.5320,0.7667
1.5330,0.7665
1.5340,0.7663
1.5350,0.7661
1.5360,0.7659
1.5370,0.7657
1.5380,0.7655
1.5390,0.7653
1.5400,0.7652
1.5410,0.7650
1.5420,0.7648
1.5430,0.7646
1.5440,0.7645
1.5450,0.7643
1.5460,0.7642
1.5470,0.7640
1.5480,0.7638
1.5490,0.7637
1.5500,0.7635
1.5510,0.7634
1.5520,0.7633
1.5530,0.7631
1.5540,0.7630
1.5550,0.7628
1.5560,0.7627
1.5570,0.7626
1.5580,0.7625
1.5590,0.7623
1.5600,0.7622
1.5610,0.7621
1.5620,0.7620
1.5630,0.7619
1.5640,0.7618
1.5650,0.7616
1.5660,0.7615
1.5670,0.7614
1.5680,0.7613
1.5690,0.7612
1.5700,0.7611
1.5710,0.7611
1.5720,0.7610
1.5730,0.7609
1.5740,0.7608
1.5750,0.7607
1.5760,0.7606
1.5770,0.7606
1.5780,0.7605
1.5790,0.7604
1.5800,0.7603
1.5810,0.7603
1.5820,0.7602
1.5830,0.7601
1.5840,0.7601
1.5850,0.7600
1.5860,0.7600
1.5870,0.7599
1.5880,0.7599
1.5890,0.7598
1.5900,0.7598
1.5910,0.7597
1.5920,0.7597
1.5930,0.7597
1.5940,0.7596
1.5950,0.7596
1.5960,0.7595
1.5970,0.7595
1.5980,0.7595
1.5990,0.7595
1.6000,0.7594
1.6010,0.7594
1.6020,0.7594
1.6030,0.7594
1.6040,0.7594
1.6050,0.7593
1.6060,0.7593
1.6070,0.7593
1.6080,0.7593
1.6090,0.7593
1.6100,0.7593
1.6110,0.7593
1.6120,0.7593
1.6130,0.7593
1.6140,0.7593
1.6150,0.7593
1.6160,0.7593
1.6170,0.7593
1.6180,0.7593
1.6190,0.7594
1.6200,0.7594
1.6210,0.7594
1.6220,0.7594
1.6230,0.7594
1.6240,0.7595
1.6250,0.7595
1.6260,0.7595
1.6270,0.7595
1.6280,0.7596
1.6290,0.7596
1.6300,0.7596
1.6310,0.7597
1.6320,0.7597
1.6330,0.7597
1.6340,0.7598
1.6350,0.7598
1.6360,0.7598
1.6370,0.7599
1.6380,0.7599
1.6390,0.7600
1.6400,0.7600
1.6410,0.7601
1.6420,0.7601
1.6430,0.7602
1.6440,0.7602
1.6450,0.7603
1.6460,0.7603
1.6470,0.7604
1.6480,0.7605
1.6490,0.7605
1.6500,0.7606
1.6510,0.7607
1.6520,0.7607
1.6530,0.7608
1.6540,0.7608
1.6550,0.7609
1.6560,0.7610
1.6570,0.7611
1.6580,0.7611
1.6590,0.7612
1.6600,0.7613
1.6610,0.7614
1.6620,0.7614
1.6630,0.7615
1.6640,0.7616
1.6650,0.7617
1.6660,0.7617
1.6670,0.7618
1.6680,0.7619
1.6690,0.7620
1.6700,0.7621
1.6710,0.7622
1.6720,0.7623
1.6730,0.7623
1.6740,0.7624
1.6750,0.7625
1.6760,0.7626
1.6770,0.7627
1.6780,0.7628
1.6790,0.7629
1.6800,0.7630
1.6810,0.7631
1.6820,0.7632
1.6830,0.7633
1.6840,0.7634
1.6850,0.7635
1.6860,0.7636
1.6870,0.7637
1.6880,0.7638
1.6890,0.7639
1.6900,0.7640
1.6910,0.7641
1.6920,0.7642
1.6930,0.7643
1.6940,0.7644
1.6950,0.7645
1.6960,0.7646
1.6970,0.7647
1.6980,0.7648
1.6990,0.7649
1.7000,0.7651
1.7010,0.7652
1.7020,0.7653
1.7030,0.7654
1.7040,0.7655
1.7050,0.7656
1.7060,0.7657
1.7070,0.7658
1.7080,0.7660
1.7090,0.7661
1.7100,0.7662
1.7110,0.7663
1.7120,0.7664
1.7130,0.7665
1.7140,0.7666
1.7150,0.7668
1.7160,0.7669
1.7170,0.7670
1.7180,0.7671
1.7190,0.7672
1.7200,0.7674
1.7210,0.7675
1.7220,0.7676
1.7230,0.7677
1.7240,0.7678
1.7250,0.7680
1.7260,0.7681
1.7270,0.7682
1.7280,0.7683
1.7290,0.7685
1.7300,0.7686
1.7310,0.7687
1.7320,0.7688
1.7330,0.7690
1.7340,0.7691
1.7350,0.7692
1.7360,0.7693
1.7370,0.7695
1.7380,0.7696
1.7390,0.7697
1.7400,0.7699
1.7410,0.7700
1.7420,0.7701
1.7430,0.7702
1.7440,0.7704
1.7450,0.7705
1.7460,0.7706
1.7470,0.7708
1.7480,0.7709
1.7490,0.7710
1.7500,0.7712
1.7510,0.7713
1.7520,0.7714
1.7530,0.7716
1.7540,0.7717
1.7550,0.7718
1.7560,0.7720
1.7570,0.7721
1.7580,0.7722
1.7590,0.7724
1.7600,0.7725
1.7610,0.7726
1.7620,0.7728
1.7630,0.7729
1.7640,0.7731
1.7650,0.7732
1.7660,0.7733
1.7670,0.7735
1.7680,0.7736
1.7690,0.7737
1.7700,0.7739
1.7710,0.7740
1.7720,0.7742
1.7730,0.7743
1.7740,0.7744
1.7750,0.7746
1.7760,0.7747
1.7770,0.7749
1.7780,0.7750
1.7790,0.7751
1.7800,0.7753
1.7810,0.7754
1.7820,0.7756
1.7830,0.7757
1.7840,0.7759
1.7850,0.7760
1.7860,0.7761
1.7870,0.7763
1.7880,0.7764
1.7890,0.7766
1.7900,0.7767
1.7910,0.7769
1.7920,0.7770
1.7930,0.7772
1.7940,0.7773
1.7950,0.7775
1.7960,0.7776
1.7970,0.7777
1.7980,0.7779
1.7990,0.7780
1.8000,0.7782
1.8010,0.7783
1.8020,0.7785
1.8030,0.7786
1.8040,0.7788
1.8050,0.7789
1.8060,0.7791
1.8070,0.7792
1.8080,0.7794
1.8090,0.7795
1.8100,0.7797
1.8110,0.7798
1.8120,0.7800
1.8130,0.7801
1.8140,0.7803
1.8150,0.7804
1.8160,0.7806
1.8170,0.7807
1.8180,0.7809
1.8190,0.7810
1.8200,0.7812
1.8210,0.7814
1.8220,0.7815
1.8230,0.7817
1.8240,0.7818
1.8250,0.7820
1.8260,0.7821
1.8270,0.7823
1.8280,0.7824
1.8290,0.7826
1.8300,0.7827
1.8310,0.7829
1.8320,0.7831
1.8330,0.7832
1.8340,0.7834
1.8350,0.7835
1.8360,0.7837
1.8370,0.7838
1.8380,0.7840
1.8390,0.7841
1.8400,0.7843
1.8410,0.7845
1.8420,0.7846
1.8430,0.7848
1.8440,0.7849
1.8450,0.7851
1.8460,0.7853
1.8470,0.7854
1.8480,0.7856
1.8490,0.7857
1.8500,0.7859
1.8510,0.7860
1.8520,0.7862
1.8530,0.7864
1.8540,0.7865
1.8550,0.7867
1.8560,0.7868
1.8570,0.7870
1.8580,0.7872
1.8590,0.7873
1.8600,0.7875
1.8610,0.7876
1.8620,0.7878
1.8630,0.7880
1.8640,0.7881
1.8650,0.7883
1.8660,0.7885
1.8670,0.7886
1.8680,0.7888
1.8690,0.7889
1.8700,0.7891
1.8710,0.7893
1.8720,0.7894
1.8730,0.7896
1.8740,0.7898
1.8750,0.7899
1.8760,0.7901
1.8770,0.7902
1.8780,0.7904
1.8790,0.7906
1.8800,0.7907
1.8810,0.7909
1.8820,0.7911
1.8830,0.7912
1.8840,0.7914
1.8850,0.7916
1.8860,0.7917
1.8870,0.7919
1.8880,0.7920
1.8890,0.7922
1.8900,0.7924
1.8910,0.7925
1.8920,0.7927
1.8930,0.7929
1.8940,0.7930
1.8950,0.7932
1.8960,0.7934
1.8970,0.7935
1.8980,0.7937
1.8990,0.7939
1.9000,0.7940
1.9010,0.7942
1.9020,0.7944
1.9030,0.7945
1.9040,0.7947
1.9050,0.7949
1.9060,0.7950
1.9070,0.7952
1.9080,0.7954
1.9090,0.7955
1.9100,0.7957
1.9110,0.7959
1.9120,0.7960
1.9130,0.7962
1.9140,0.7964
1.9150,0.7965
1.9160,0.7967
1.9170,0.7969
1.9180,0.7970
1.9190,0.7972
1.9200,0.7974
1.9210,0.7975
1.9220,0.7977
1.9230,0.7979
1.9240,0.7980
1.9250,0.7982
1.9260,0.7984
1.9270,0.7985
1.9280,0.7987
1.9290,0.7989
1.9300,0.7991
1.9310,0.7992
1.9320,0.7994
1.9330,0.7996
1.9340,0.7997
1.9350,0.7999
1.9360,0.8001
1.9370,0.8002
1.9380,0.8004
1.9390,0.8006
1.9400,0.8007
1.9410,0.8009
1.9420,0.8011
1.9430,0.8012
1.9440,0.8014
1.9450,0.8016
1.9460,0.8018
1.9470,0.8019
1.9480,0.8021
1.9490,0.8023
1.9500,0.8024
1.9510,0.8026
1.9520,0.8028
1.9530,0.8029
1.9540,0.8031
1.9550,0.8033
1.9560,0.8035
1.9570,0.8036
1.9580,0.8038
1.9590,0.8040
1.9600,0.8041
1.9610,0.8043
1.9620,0.8045
1.9630,0.8047
1.9640,0.8048
1.9650,0.8050
1.9660,0.8052
1.9670,0.8053
1.9680,0.8055
1.9690,0.8057
1.9700,0.8059
1.9710,0.8060
1.9720,0.8062
1.9730,0.8064
1.9740,0.8065
1.9750,0.8067
1.9760,0.8069
1.9770,0.8071
1.9780,0.8072
1.9790,0.8074
1.9800,0.8076
1.9810,0.8078
1.9820,0.8079
1.9830,0.8081
1.9840,0.8083
1.9850,0.8085
1.9860,0.8086
1.9870,0.8088
1.9880,0.8090
1.9890,0.8091
1.9900,0.8093
1.9910,0.8095
1.9920,0.8097
1.9930,0.8098
1.9940,0.8100
1.9950,0.8102
1.9960,0.8104
1.9970,0.8105
1.9980,0.8107
1.9990,0.8109
2.0000,0.8111
2.0010,0.8112
2.0020,0.8114
2.0030,0.8116
2.0040,0.8118
2.0050,0.8120
2.0060,0.8121
2.0070,0.8123
2.0080,0.8125
2.0090,0.8127
2.0100,0.8128
2.0110,0.8130
2.0120,0.8132
2.0130,0.8134
2.0140,0.8135
2.0150,0.8137
2.0160,0.8139
2.0170,0.8141
2.0180,0.8143
2.0190,0.8144
2.0200,0.8146
2.0210,0.8148
2.0220,0.8150
2.0230,0.8151
2.0240,0.8153
2.0250,0.8155
2.0260,0.8157
2.0270,0.8159
2.0280,0.8160
2.0290,0.8162
2.0300,0.8164
2.0310,0.8166
2.0320,0.8168
2.0330,0.8169
2.0340,0.8171
2.0350,0.8173
2.0360,0.8175
2.0370,0.8177
2.0380,0.8178
2.0390,0.8180
2.0400,0.8182
2.0410,0.8184
2.0420,0.8186
2.0430,0.8188
2.0440,0.8189
2.0450,0.8191
2.0460,0.8193
2.0470,0.8195
2.0480,0.8197
2.0490,0.8198
2.0500,0.8200
2.0510,0.8202
2.0520,0.8204
2.0530,0.8206
2.0540,0.8208
2.0550,0.8209
2.0560,0.8211
2.0570,0.8213
2.0580,0.8215
2.0590,0.8217
2.0600,0.8219
2.0610,0.8221
2.0620,0.8222
2.0630,0.8224
2.0640,0.8226
2.0650,0.8228
2.0660,0.8230
2.0670,0.8232
2.0680,0.8234
2.0690,0.8235
2.0700,0.8237
2.0710,0.8239
2.0720,0.8241
2.0730,0.8243
2.0740,0.8245
2.0750,0.8247
2.0760,0.8249
2.0770,0.8250
2.0780,0.8252
2.0790,0.8254
2.0800,0.8256
2.0810,0.8258
2.0820,0.8260
2.0830,0.8262
2.0840,0.8264
2.0850,0.8266
2.0860,0.8267
2.0870,0.8269
2.0880,0.8271
2.0890,0.8273
2.0900,0.8275
2.0910,0.8277
2.0920,0.8279
2.0930,0.8281
2.0940,0.8283
2.0950,0.8285
2.0960,0.8287
2.0970,0.8288
2.0980,0.8290
2.0990,0.8292
2.1000,0.8294
2.1010,0.8296
2.1020,0.8298
2.1030,0.8300
2.1040,0.8302
2.1050,0.8304
2.1060,0.8306
2.1070,0.8308
2.1080,0.8310
2.1090,0.8312
2.1100,0.8314
2.1110,0.8316
2.1120,0.8318
2.1130,0.8320
2.1140,0.8321
2.1150,0.8323
2.1160,0.8325
2.1170,0.8327
2.1180,0.8329
2.1190,0.8331
2.1200,0.8333
2.1210,0.8335
2.1220,0.8337
2.1230,0.8339
2.1240,0.8341
2.1250,0.8343
2.1260,0.8345
2.1270,0.8347
2.1280,0.8349
2.1290,0.8351
2.1300,0.8353
2.1310,0.8355
2.1320,0.8357
2.1330,0.8359
2.1340,0.8361
2.1350,0.8363
2.1360,0.8365
2.1370,0.8367
2.1380,0.8369
2.1390,0.8371
2.1400,0.8373
2.1410,0.8375
2.1420,0.8377
2.1430,0.8379
2.1440,0.8381
2.1450,0.8383
2.1460,0.8385
2.1470,0.8387
2.1480,0.8389
2.1490,0.8392
2.1500,0.8394
2.1510,0.8396
2.1520,0.8398
2.1530,0.8400
2.1540,0.8402
2.1550,0.8404
2.1560,0.8406
2.1570,0.8408
2.1580,0.8410
2.1590,0.8412
2.1600,0.8414
2.1610,0.8416
2.1620,0.8418
2.1630,0.8420
2.1640,0.8422
2.1650,0.8425
2.1660,0.8427
2.1670,0.8429
2.1680,0.8431
2.1690,0.8433
2.1700,0.8435
2.1710,0.8437
2.1720,0.8439
2.1730,0.8441
2.1740,0.8443
2.1750,0.8446
2.1760,0.8448
2.1770,0.8450
2.1780,0.8452
2.1790,0.8454
2.1800,0.8456
2.1810,0.8458
2.1820,0.8460
2.1830,0.8463
2.1840,0.8465
2.1850,0.8467
2.1860,0.8469
2.1870,0.8471
2.1880,0.8473
2.1890,0.8475
2.1900,0.8478
2.1910,0.8480
2.1920,0.8482
2.1930,0.8484
2.1940,0.8486
2.1950,0.8488
2.1960,0.8491
2.1970,0.8493
2.1980,0.8495
2.1990,0.8497
2.2000,0.8499
2.2010,0.8502
2.2020,0.8504
2.2030,0.8506
2.2040,0.8508
2.2050,0.8510
2.2060,0.8512
2.2070,0.8515
2.2080,0.8517
2.2090,0.8519
2.2100,0.8521
2.2110,0.8524
2.2120,0.8526
2.2130,0.8528
2.2140,0.8530
2.2150,0.8532
2.2160,0.8535
2.2170,0.8537
2.2180,0.8539
2.2190,0.8541
2.2200,0.8543
2.2210,0.8546
2.2220,0.8548
2.2230,0.8550
2.2240,0.8552
2.2250,0.8555
2.2260,0.8557
2.2270,0.8559
2.2280,0.8561
2.2290,0.8564
2.2300,0.8566
2.2310,0.8568
2.2320,0.8570
2.2330,0.8573
2.2340,0.8575
2.2350,0.8577
2.2360,0.8579
2.2370,0.8582
2.2380,0.8584
2.2390,0.8586
2.2400,0.8589
2.2410,0.8591
2.2420,0.8593
2.2430,0.8595
2.2440,0.8598
2.2450,0.8600
2.2460,0.8602
2.2470,0.8604
2.2480,0.8607
2.2490,0.8609
2.2500,0.8611
2.2510,0.8614
2.2520,0.8616
2.2530,0.8618
2.2540,0.8620
2.2550,0.8623
2.2560,0.8625
2.2570,0.8627
2.2580,0.8630
2.2590,0.8632
2.2600,0.8634
2.2610,0.8637
2.2620,0.8639
2.2630,0.8641
2.2640,0.8643
2.2650,0.8646
2.2660,0.8648
2.2670,0.8650
2.2680,0.8653
2.2690,0.8655
2.2700,0.8657
2.2710,0.8660
2.2720,0.8662
2.2730,0.8664
2.2740,0.8667
2.2750,0.8669
2.2760,0.8671
2.2770,0.8673
2.2780,0.8676
2.2790,0.8678
2.2800,0.8680
2.2810,0.8683
2.2820,0.8685
2.2830,0.8687
2.2840,0.8690
2.2850,0.8692
2.2860,0.8694
2.2870,0.8697
2.2880,0.8699
2.2890,0.8701
2.2900,0.8704
2.2910,0.8706
2.2920,0.8708
2.2930,0.8710
2.2940,0.8713
2.2950,0.8715
2.2960,0.8717
2.2970,0.8720
2.2980,0.8722
2.2990,0.8724
2.3000,0.8727
2.3010,0.8729
2.3020,0.8731
2.3030,0.8734
2.3040,0.8736
2.3050,0.8738
2.3060,0.8741
2.3070,0.8743
2.3080,0.8745
2.3090,0.8747
2.3100,0.8750
2.3110,0.8752
2.3120,0.8754
2.3130,0.8757
2.3140,0.8759
2.3150,0.8761
2.3160,0.8764
2.3170,0.8766
2.3180,0.8768
2.3190,0.8771
2.3200,0.8773
2.3210,0.8775
2.3220,0.8777
2.3230,0.8780
2.3240,0.8782
2.3250,0.8784
2.3260,0.8787
2.3270,0.8789
2.3280,0.8791
2.3290,0.8794
2.3300,0.8796
2.3310,0.8798
2.3320,0.8800
2.3330,0.8803
2.3340,0.8805
2.3350,0.8807
2.3360,0.8810
2.3370,0.8812
2.3380,0.8814
2.3390,0.8816
2.3400,0.8819
2.3410,0.8821
2.3420,0.8823
2.3430,0.8826
2.3440,0.8828
2.3450,0.8830
2.3460,0.8832
2.3470,0.8835
2.3480,0.8837
2.3490,0.8839
2.3500,0.8841
2.3510,0.8844
2.3520,0.8846
2.3530,0.8848
2.3540,0.8851
2.3550,0.8853
2.3560,0.8855
2.3570,0.8857
2.3580,0.8860
2.3590,0.8862
2.3600,0.8864
2.3610,0.8866
2.3620,0.8869
2.3630,0.8871
2.3640,0.8873
2.3650,0.8875
2.3660,0.8877
2.3670,0.8880
2.3680,0.8882
2.3690,0.8884
2.3700,0.8886
2.3710,0.8889
2.3720,0.8891
2.3730,0.8893
2.3740,0.8895
2.3750,0.8898
2.3760,0.8900
2.3770,0.8902
2.3780,0.8904
2.3790,0.8906
2.3800,0.8909
2.3810,0.8911
2.3820,0.8913
2.3830,0.8915
2.3840,0.8917
2.3850,0.8920
2.3860,0.8922
2.3870,0.8924
2.3880,0.8926
2.3890,0.8928
2.3900,0.8930
2.3910,0.8933
2.3920,0.8935
2.3930,0.8937
2.3940,0.8939
2.3950,0.8941
2.3960,0.8943
2.3970,0.8946
2.3980,0.8948
2.3990,0.8950
2.4000,0.8952
2.4010,0.8954
2.4020,0.8956
2.4030,0.8958
2.4040,0.8961
2.4050,0.8963
2.4060,0.8965
2.4070,0.8967
2.4080,0.8969
2.4090,0.8971
2.4100,0.8973
2.4110,0.8975
2.4120,0.8977
2.4130,0.8980
2.4140,0.8982
2.4150,0.8984
2.4160,0.8986
2.4170,0.8988
2.4180,0.8990
2.4190,0.8992
2.4200,0.8994
2.4210,0.8996
2.4220,0.8998
2.4230,0.9000
2.4240,0.9002
2.4250,0.9004
2.4260,0.9007
2.4270,0.9009
2.4280,0.9011
2.4290,0.9013
2.4300,0.9015
2.4310,0.9017
2.4320,0.9019
2.4330,0.9021
2.4340,0.9023
2.4350,0.9025
2.4360,0.9027
2.4370,0.9029
2.4380,0.9031
2.4390,0.9033
2.4400,0.9035
2.4410,0.9037
2.4420,0.9039
2.4430,0.9041
2.4440,0.9043
2.4450,0.9045
2.4460,0.9047
2.4470,0.9049
2.4480,0.9050
2.4490,0.9052
2.4500,0.9054
2.4510,0.9056
2.4520,0.9058
2.4530,0.9060
2.4540,0.9062
2.4550,0.9064
2.4560,0.9066
2.4570,0.9068
2.4580,0.9070
2.4590,0.9072
2.4600,0.9074
2.4610,0.9075
2.4620,0.9077
2.4630,0.9079
2.4640,0.9081
2.4650,0.9083
2.4660,0.9085
2.4670,0.9087
2.4680,0.9089
2.4690,0.9090
2.4700,0.9092
2.4710,0.9094
2.4720,0.9096
2.4730,0.9098
2.4740,0.9100
2.4750,0.9101
2.4760,0.9103
2.4770,0.9105
2.4780,0.9107
2.4790,0.9109
2.4800,0.9110
2.4810,0.9112
2.4820,0.9114
2.4830,0.9116
2.4840,0.9118
2.4850,0.9119
2.4860,0.9121
2.4870,0.9123
2.4880,0.9125
2.4890,0.9126
2.4900,0.9128
2.4910,0.9130
2.4920,0.9132
2.4930,0.9133
2.4940,0.9135
2.4950,0.9137
2.4960,0.9138
2.4970,0.9140
2.4980,0.9142
2.4990,0.9144
2.5000,0.9145
2.5010,0.9147
2.5020,0.9149
2.5030,0.9150
2.5040,0.9152
2.5050,0.9154
2.5060,0.9155
2.5070,0.9157
2.5080,0.9159
2.5090,0.9160
2.5100,0.9162
2.5110,0.9164
2.5120,0.9165
2.5130,0.9167
2.5140,0.9168
2.5150,0.9170
2.5160,0.9172
2.5170,0.9173
2.5180,0.9175
2.5190,0.9177
2.5200,0.9178
2.5210,0.9180
2.5220,0.9181
2.5230,0.9183
2.5240,0.9184
2.5250,0.9186
2.5260,0.9188
2.5270,0.9189
2.5280,0.9191
2.5290,0.9192
2.5300,0.9194
2.5310,0.9195
2.5320,0.9197
2.5330,0.9198
2.5340,0.9200
2.5350,0.9202
2.5360,0.9203
2.5370,0.9205
2.5380,0.9206
2.5390,0.9208
2.5400,0.9209
2.5410,0.9211
2.5420,0.9212
2.5430,0.9214
2.5440,0.9215
2.5450,0.9217
2.5460,0.9218
2.5470,0.9220
2.5480,0.9221
2.5490,0.9222
2.5500,0.9224
2.5510,0.9225
2.5520,0.9227
2.5530,0.9228
2.5540,0.9230
2.5550,0.9231
2.5560,0.9233
2.5570,0.9234
2.5580,0.9236
2.5590,0.9237
2.5600,0.9238
2.5610,0.9240
2.5620,0.9241
2.5630,0.9243
2.5640,0.9244
2.5650,0.9245
2.5660,0.9247
2.5670,0.9248
2.5680,0.9250
2.5690,0.9251
2.5700,0.9252
2.5710,0.9254
2.5720,0.9255
2.5730,0.9257
2.5740,0.9258
2.5750,0.9259
2.5760,0.9261
2.5770,0.9262
2.5780,0.9263
2.5790,0.9265
2.5800,0.9266
2.5810,0.9267
2.5820,0.9269
2.5830,0.9270
2.5840,0.9271
2.5850,0.9273
2.5860,0.9274
2.5870,0.9275
2.5880,0.9277
2.5890,0.9278
2.5900,0.9279
2.5910,0.9281
2.5920,0.9282
2.5930,0.9283
2.5940,0.9285
2.5950,0.9286
2.5960,0.9287
2.5970,0.9289
2.5980,0.9290
2.5990,0.9291
2.6000,0.9292
2.6010,0.9294
2.6020,0.9295
2.6030,0.9296
2.6040,0.9298
2.6050,0.9299
2.6060,0.9300
2.6070,0.9301
2.6080,0.9303
2.6090,0.9304
2.6100,0.9305
2.6110,0.9306
2.6120,0.9308
2.6130,0.9309
2.6140,0.9310
2.6150,0.9311
2.6160,0.9313
2.6170,0.9314
2.6180,0.9315
2.6190,0.9316
2.6200,0.9318
2.6210,0.9319
2.6220,0.9320
2.6230,0.9321
2.6240,0.9322
2.6250,0.9324
2.6260,0.9325
2.6270,0.9326
2.6280,0.9327
2.6290,0.9328
2.6300,0.9330
2.6310,0.9331
2.6320,0.9332
2.6330,0.9333
2.6340,0.9334
2.6350,0.9336
2.6360,0.9337
2.6370,0.9338
2.6380,0.9339
2.6390,0.9340
2.6400,0.9342
2.6410,0.9343
2.6420,0.9344
2.6430,0.9345
2.6440,0.9346
2.6450,0.9347
2.6460,0.9349
2.6470,0.9350
2.6480,0.9351
2.6490,0.9352
2.6500,0.9353
2.6510,0.9354
2.6520,0.9356
2.6530,0.9357
2.6540,0.9358
2.6550,0.9359
2.6560,0.9360
2.6570,0.9361
2.6580,0.9362
2.6590,0.9364
2.6600,0.9365
2.6610,0.9366
2.6620,0.9367
2.6630,0.9368
2.6640,0.9369
2.6650,0.9370
2.6660,0.9372
2.6670,0.9373
2.6680,0.9374
2.6690,0.9375
2.6700,0.9376
2.6710,0.9377
2.6720,0.9378
2.6730,0.9379
2.6740,0.9380
2.6750,0.9382
2.6760,0.9383
2.6770,0.9384
2.6780,0.9385
2.6790,0.9386
2.6800,0.9387
2.6810,0.9388
2.6820,0.9389
2.6830,0.9390
2.6840,0.9392
2.6850,0.9393
2.6860,0.9394
2.6870,0.9395
2.6880,0.9396
2.6890,0.9397
2.6900,0.9398
2.6910,0.9399
2.6920,0.9400
2.6930,0.9401
2.6940,0.9402
2.6950,0.9404
2.6960,0.9405
2.6970,0.9406
2.6980,0.9407
2.6990,0.9408
2.7000,0.9409
2.7010,0.9410
2.7020,0.9411
2.7030,0.9412
2.7040,0.9413
2.7050,0.9414
2.7060,0.9415
2.7070,0.9416
2.7080,0.9418
2.7090,0.9419
2.7100,0.9420
2.7110,0.9421
2.7120,0.9422
2.7130,0.9423
2.7140,0.9424
2.7150,0.9425
2.7160,0.9426
2.7170,0.9427
2.7180,0.9428
2.7190,0.9429
2.7200,0.9430
2.7210,0.9431
2.7220,0.9432
2.7230,0.9433
2.7240,0.9435
2.7250,0.9436
2.7260,0.9437
2.7270,0.9438
2.7280,0.9439
2.7290,0.9440
2.7300,0.9441
2.7310,0.9442
2.7320,0.9443
2.7330,0.9444
2.7340,0.9445
2.7350,0.9446
2.7360,0.9447
2.7370,0.9448
2.7380,0.9449
2.7390,0.9450
2.7400,0.9451
2.7410,0.9452
2.7420,0.9453
2.7430,0.9455
2.7440,0.9456
2.7450,0.9457
2.7460,0.9458
2.7470,0.9459
2.7480,0.9460
2.7490,0.9461
2.7500,0.9462
2.7510,0.9463
2.7520,0.9464
2.7530,0.9465
2.7540,0.9466
2.7550,0.9467
2.7560,0.9468
2.7570,0.9469
2.7580,0.9470
2.7590,0.9471
2.7600,0.9472
2.7610,0.9473
2.7620,0.9474
2.7630,0.9475
2.7640,0.9476
2.7650,0.9477
2.7660,0.9478
2.7670,0.9479
2.7680,0.9480
2.7690,0.9481
2.7700,0.9482
2.7710,0.9483
2.7720,0.9484
2.7730,0.9485
2.7740,0.9487
2.7750,0.9488
2.7760,0.9489
2.7770,0.9490
2.7780,0.9491
2.7790,0.9492
2.7800,0.9493
2.7810,0.9494
2.7820,0.9495
2.7830,0.9496
2.7840,0.9497
2.7850,0.9498
2.7860,0.9499
2.7870,0.9500
2.7880,0.9501
2.7890,0.9502
2.7900,0.9503
2.7910,0.9504
2.7920,0.9505
2.7930,0.9506
2.7940,0.9507
2.7950,0.9508
2.7960,0.9509
2.7970,0.9510
2.7980,0.9511
2.7990,0.9512
2.8000,0.9513
2.8010,0.9514
2.8020,0.9515
2.8030,0.9516
2.8040,0.9517
2.8050,0.9518
2.8060,0.9518
2.8070,0.9519
2.8080,0.9520
2.8090,0.9521
2.8100,0.9522
2.8110,0.9523
2.8120,0.9524
2.8130,0.9525
2.8140,0.9526
2.8150,0.9527
2.8160,0.9528
2.8170,0.9529
2.8180,0.9530
2.8190,0.9531
2.8200,0.9532
2.8210,0.9533
2.8220,0.9534
2.8230,0.9535
2.8240,0.9536
2.8250,0.9537
2.8260,0.9538
2.8270,0.9539
2.8280,0.9540
2.8290,0.9540
2.8300,0.9541
2.8310,0.9542
2.8320,0.9543
2.8330,0.9544
2.8340,0.9545
2.8350,0.9546
2.8360,0.9547
2.8370,0.9548
2.8380,0.9549
2.8390,0.9550
2.8400,0.9551
2.8410,0.9551
2.8420,0.9552
2.8430,0.9553
2.8440,0.9554
2.8450,0.9555
2.8460,0.9556
2.8470,0.9557
2.8480,0.9558
2.8490,0.9558
2.8500,0.9559
2.8510,0.9560
2.8520,0.9561
2.8530,0.9562
2.8540,0.9563
2.8550,0.9564
2.8560,0.9565
2.8570,0.9565
2.8580,0.9566
2.8590,0.9567
2.8600,0.9568
2.8610,0.9569
2.8620,0.9570
2.8630,0.9570
2.8640,0.9571
2.8650,0.9572
2.8660,0.9573
2.8670,0.9574
2.8680,0.9574
2.8690,0.9575
2.8700,0.9576
2.8710,0.9577
2.8720,0.9578
2.8730,0.9578
2.8740,0.9579
2.8750,0.9580
2.8760,0.9581
2.8770,0.9582
2.8780,0.9582
2.8790,0.9583
2.8800,0.9584
2.8810,0.9585
2.8820,0.9585
2.8830,0.9586
2.8840,0.9587
2.8850,0.9588
2.8860,0.9588
2.8870,0.9589
2.8880,0.9590
2.8890,0.9591
2.8900,0.9591
2.8910,0.9592
2.8920,0.9593
2.8930,0.9593
2.8940,0.9594
2.8950,0.9595
2.8960,0.9596
2.8970,0.9596
2.8980,0.9597
2.8990,0.9598
2.9000,0.9598
2.9010,0.9599
2.9020,0.9600
2.9030,0.9600
2.9040,0.9601
2.9050,0.9602
2.9060,0.9602
2.9070,0.9603
2.9080,0.9603
2.9090,0.9604
2.9100,0.9605
2.9110,0.9605
2.9120,0.9606
2.9130,0.9607
2.9140,0.9607
2.9150,0.9608
2.9160,0.9608
2.9170,0.9609
2.9180,0.9610
2.9190,0.9610
2.9200,0.9611
2.9210,0.9611
2.9220,0.9612
2.9230,0.9612
2.9240,0.9613
2.9250,0.9613
2.9260,0.9614
2.9270,0.9614
2.9280,0.9615
2.9290,0.9616
2.9300,0.9616
2.9310,0.9617
2.9320,0.9617
2.9330,0.9618
2.9340,0.9618
2.9350,0.9619
2.9360,0.9619
2.9370,0.9619
2.9380,0.9620
2.9390,0.9620
2.9400,0.9621
2.9410,0.9621
2.9420,0.9622
2.9430,0.9622
2.9440,0.9623
2.9450,0.9623
2.9460,0.9623
2.9470,0.9624
2.9480,0.9624
2.9490,0.9625
2.9500,0.9625
2.9510,0.9625
2.9520,0.9626
2.9530,0.9626
2.9540,0.9627
2.9550,0.9627
2.9560,0.9627
2.9570,0.9628
2.9580,0.9628
2.9590,0.9628
2.9600,0.9629
2.9610,0.9629
2.9620,0.9629
2.9630,0.9630
2.9640,0.9630
2.9650,0.9630
2.9660,0.9630
2.9670,0.9631
2.9680,0.9631
2.9690,0.9631
2.9700,0.9632
2.9710,0.9632
2.9720,0.9632
2.9730,0.9632
2.9740,0.9632
2.9750,0.9633
2.9760,0.9633
2.9770,0.9633
2.9780,0.9633
2.9790,0.9634
2.9800,0.9634
2.9810,0.9634
2.9820,0.9634
2.9830,0.9634
2.9840,0.9634
2.9850,0.9634
2.9860,0.9635
2.9870,0.9635
2.9880,0.9635
2.9890,0.9635
2.9900,0.9635
2.9910,0.9635
2.9920,0.9635
2.9930,0.9635
2.9940,0.9635
2.9950,0.9636
2.9960,0.9636
2.9970,0.9636
2.9980,0.9636
2.9990,0.9636
3.0000,0.9636
3.0010,0.9636
3.0020,0.9636
3.0030,0.9636
3.0040,0.9636
3.0050,0.9636
3.0060,0.9636
3.0070,0.9636
3.0080,0.9636
3.0090,0.9636
3.0100,0.9636
3.0110,0.9636
3.0120,0.9636
3.0130,0.9635
3.0140,0.9635
3.0150,0.9635
3.0160,0.9635
3.0170,0.9635
3.0180,0.9635
3.0190,0.9635
3.0200,0.9635
3.0210,0.9635
3.0220,0.9634
3.0230,0.9634
3.0240,0.9634
3.0250,0.9634
3.0260,0.9634
3.0270,0.9634
3.0280,0.9633
3.0290,0.9633
3.0300,0.9633
3.0310,0.9633
3.0320,0.9633
3.0330,0.9632
3.0340,0.9632
3.0350,0.9632
3.0360,0.9632
3.0370,0.9631
3.0380,0.9631
3.0390,0.9631
3.0400,0.9631
3.0410,0.9630
3.0420,0.9630
3.0430,0.9630
3.0440,0.9629
3.0450,0.9629
3.0460,0.9629
3.0470,0.9628
3.0480,0.9628
3.0490,0.9628
3.0500,0.9627
3.0510,0.9627
3.0520,0.9627
3.0530,0.9626
3.0540,0.9626
3.0550,0.9625
3.0560,0.9625
3.0570,0.9625
3.0580,0.9624
3.0590,0.9624
3.0600,0.9623
3.0610,0.9623
3.0620,0.9622
3.0630,0.9622
3.0640,0.9622
3.0650,0.9621
3.0660,0.9621
3.0670,0.9620
3.0680,0.9620
3.0690,0.9619
3.0700,0.9619
3.0710,0.9618
3.0720,0.9618
3.0730,0.9617
3.0740,0.9617
3.0750,0.9616
3.0760,0.9615
3.0770,0.9615
3.0780,0.9614
3.0790,0.9614
3.0800,0.9613
3.0810,0.9613
3.0820,0.9612
3.0830,0.9611
3.0840,0.9611
3.0850,0.9610
3.0860,0.9610
3.0870,0.9609
3.0880,0.9608
3.0890,0.9608
3.0900,0.9607
3.0910,0.9607
3.0920,0.9606
3.0930,0.9605
3.0940,0.9605
3.0950,0.9604
3.0960,0.9603
3.0970,0.9603
3.0980,0.9602
3.0990,0.9601
3.1000,0.9601
3.1010,0.9600
3.1020,0.9599
3.1030,0.9598
3.1040,0.9598
3.1050,0.9597
3.1060,0.9596
3.1070,0.9596
3.1080,0.9595
3.1090,0.9594
3.1100,0.9593
3.1110,0.9593
3.1120,0.9592
3.1130,0.9591
3.1140,0.9590
3.1150,0.9590
3.1160,0.9589
3.1170,0.9588
3.1180,0.9587
3.1190,0.9586
3.1200,0.9586
3.1210,0.9585
3.1220,0.9584
3.1230,0.9583
3.1240,0.9582
3.1250,0.9582
3.1260,0.9581
3.1270,0.9580
3.1280,0.9579
3.1290,0.9578
3.1300,0.9577
3.1310,0.9577
3.1320,0.9576
3.1330,0.9575
3.1340,0.9574
3.1350,0.9573
3.1360,0.9572
3.1370,0.9572
3.1380,0.9571
3.1390,0.9570
3.1400,0.9569
3.1410,0.9568
3.1420,0.9567
3.1430,0.9566
3.1440,0.9566
3.1450,0.9565
3.1460,0.9564
3.1470,0.9563
3.1480,0.9562
3.1490,0.9561
3.1500,0.9560
3.1510,0.9559
3.1520,0.9558
3.1530,0.9558
3.1540,0.9557
3.1550,0.9556
3.1560,0.9555
3.1570,0.9554
3.1580,0.9553
3.1590,0.9552
3.1600,0.9551
3.1610,0.9550
3.1620,0.9549
3.1630,0.9548
3.1640,0.9547
3.1650,0.9547
3.1660,0.9546
3.1670,0.9545
3.1680,0.9544
3.1690,0.9543
3.1700,0.9542
3.1710,0.9541
3.1720,0.9540
3.1730,0.9539
3.1740,0.9538
3.1750,0.9537
3.1760,0.9536
3.1770,0.9535
3.1780,0.9534
3.1790,0.9534
3.1800,0.9533
3.1810,0.9532
3.1820,0.9531
3.1830,0.9530
3.1840,0.9529
3.1850,0.9528
3.1860,0.9527
3.1870,0.9526
3.1880,0.9525
3.1890,0.9524
3.1900,0.9523
3.1910,0.9522
3.1920,0.9521
3.1930,0.9520
3.1940,0.9519
3.1950,0.9518
3.1960,0.9517
3.1970,0.9517
3.1980,0.9516
3.1990,0.9515
3.2000,0.9514
3.2010,0.9513
3.2020,0.9512
3.2030,0.9511
3.2040,0.9510
3.2050,0.9509
3.2060,0.9508
3.2070,0.9507
3.2080,0.9506
3.2090,0.9505
3.2100,0.9504
3.2110,0.9503
3.2120,0.9502
3.2130,0.9502
3.2140,0.9501
3.2150,0.9500
3.2160,0.9499
3.2170,0.9498
3.2180,0.9497
3.2190,0.9496
3.2200,0.9495
3.2210,0.9494
3.2220,0.9493
3.2230,0.9492
3.2240,0.9491
3.2250,0.9491
3.2260,0.9490
3.2270,0.9489
3.2280,0.9488
3.2290,0.9487
3.2300,0.9486
3.2310,0.9485
3.2320,0.9484
3.2330,0.9483
3.2340,0.9482
3.2350,0.9482
3.2360,0.9481
3.2370,0.9480
3.2380,0.9479
3.2390,0.9478
3.2400,0.9477
3.2410,0.9476
3.2420,0.9475
3.2430,0.9475
3.2440,0.9474
3.2450,0.9473
3.2460,0.9472
3.2470,0.9471
3.2480,0.9470
3.2490,0.9469
3.2500,0.9469
3.2510,0.9468
3.2520,0.9467
3.2530,0.9466
3.2540,0.9465
3.2550,0.9464
3.2560,0.9464
3.2570,0.9463
3.2580,0.9462
3.2590,0.9461
3.2600,0.9460
3.2610,0.9460
3.2620,0.9459
3.2630,0.9458
3.2640,0.9457
3.2650,0.9456
3.2660,0.9456
3.2670,0.9455
3.2680,0.9454
3.2690,0.9453
3.2700,0.9453
3.2710,0.9452
3.2720,0.9451
3.2730,0.9450
3.2740,0.9450
3.2750,0.9449
3.2760,0.9448
3.2770,0.9447
3.2780,0.9447
3.2790,0.9446
3.2800,0.9445
3.2810,0.9444
3.2820,0.9444
3.2830,0.9443
3.2840,0.9442
3.2850,0.9442
3.2860,0.9441
3.2870,0.9440
3.2880,0.9440
3.2890,0.9439
3.2900,0.9438
3.2910,0.9438
3.2920,0.9437
3.2930,0.9436
3.2940,0.9436
3.2950,0.9435
3.2960,0.9434
3.2970,0.9434
3.2980,0.9433
3.2990,0.9433
3.3000,0.9432
3.3010,0.9431
3.3020,0.9431
3.3030,0.9430
3.3040,0.9430
3.3050,0.9429
3.3060,0.9428
3.3070,0.9428
3.3080,0.9427
3.3090,0.9427
3.3100,0.9426
3.3110,0.9426
3.3120,0.9425
3.3130,0.9425
3.3140,0.9424
3.3150,0.9423
3.3160,0.9423
3.3170,0.9422
3.3180,0.9422
3.3190,0.9421
3.3200,0.9421
3.3210,0.9420
3.3220,0.9420
3.3230,0.9419
3.3240,0.9419
3.3250,0.9419
3.3260,0.9418
3.3270,0.9418
3.3280,0.9417
3.3290,0.9417
3.3300,0.9416
3.3310,0.9416
3.3320,0.9415
3.3330,0.9415
3.3340,0.9415
3.3350,0.9414
3.3360,0.9414
3.3370,0.9413
3.3380,0.9413
3.3390,0.9413
3.3400,0.9412
3.3410,0.9412
3.3420,0.9412
3.3430,0.9411
3.3440,0.9411
3.3450,0.9410
3.3460,0.9410
3.3470,0.9410
3.3480,0.9409
3.3490,0.9409
3.3500,0.9409
3.3510,0.9409
3.3520,0.9408
3.3530,0.9408
3.3540,0.9408
3.3550,0.9407
3.3560,0.9407
3.3570,0.9407
3.3580,0.9406
3.3590,0.9406
3.3600,0.9406
3.3610,0.9406
3.3620,0.9405
3.3630,0.9405
3.3640,0.9405
3.3650,0.9405
3.3660,0.9405
3.3670,0.9404
3.3680,0.9404
3.3690,0.9404
3.3700,0.9404
3.3710,0.9403
3.3720,0.9403
3.3730,0.9403
3.3740,0.9403
3.3750,0.9403
3.3760,0.9402
3.3770,0.9402
3.3780,0.9402
3.3790,0.9402
3.3800,0.9402
3.3810,0.9402
3.3820,0.9401
3.3830,0.9401
3.3840,0.9401
3.3850,0.9401
3.3860,0.9401
3.3870,0.9401
3.3880,0.9401
3.3890,0.9401
3.3900,0.9400
3.3910,0.9400
3.3920,0.9400
3.3930,0.9400
3.3940,0.9400
3.3950,0.9400
3.3960,0.9400
3.3970,0.9400
3.3980,0.9400
3.3990,0.9400
3.4000,0.9399
3.4010,0.9399
3.4020,0.9399
3.4030,0.9399
3.4040,0.9399
3.4050,0.9399
3.4060,0.9399
3.4070,0.9399
3.4080,0.9399
3.4090,0.9399
3.4100,0.9399
3.4110,0.9399
3.4120,0.9399
3.4130,0.9399
3.4140,0.9399
3.4150,0.9399
3.4160,0.9399
3.4170,0.9399
3.4180,0.9399
3.4190,0.9399
3.4200,0.9399
3.4210,0.9399
3.4220,0.9398
3.4230,0.9398
3.4240,0.9398
3.4250,0.9398
3.4260,0.9398
3.4270,0.9398
3.4280,0.9398
3.4290,0.9398
3.4300,0.9398
3.4310,0.9398
3.4320,0.9398
3.4330,0.9398
3.4340,0.9398
3.4350,0.9398
3.4360,0.9399
3.4370,0.9399
3.4380,0.9399
3.4390,0.9399
3.4400,0.9399
3.4410,0.9399
3.4420,0.9399
3.4430,0.9399
3.4440,0.9399
3.4450,0.9399
3.4460,0.9399
3.4470,0.9399
3.4480,0.9399
3.4490,0.9399
3.4500,0.9399
3.4510,0.9399
3.4520,0.9399
3.4530,0.9399
3.4540,0.9399
3.4550,0.9399
3.4560,0.9399
3.4570,0.9399
3.4580,0.9399
3.4590,0.9399
3.4600,0.9399
3.4610,0.9399
3.4620,0.9399
3.4630,0.9399
3.4640,0.9399
3.4650,0.9399
3.4660,0.9399
3.4670,0.9399
3.4680,0.9399
3.4690,0.9399
3.4700,0.9399
3.4710,0.9400
3.4720,0.9400
3.4730,0.9400
3.4740,0.9400
3.4750,0.9400
3.4760,0.9400
3.4770,0.9400
3.4780,0.9400
3.4790,0.9400
3.4800,0.9400
3.4810,0.9400
3.4820,0.9400
3.4830,0.9400
3.4840,0.9400
3.4850,0.9400
3.4860,0.9400
3.4870,0.9400
3.4880,0.9400
3.4890,0.9400
3.4900,0.9400
3.4910,0.9400
3.4920,0.9400
3.4930,0.9400
3.4940,0.9400
3.4950,0.9400
3.4960,0.9400
3.4970,0.9400
3.4980,0.9400
3.4990,0.9400
3.5000,0.9400
3.5010,0.9400
3.5020,0.9400
3.5030,0.9400
3.5040,0.9400
3.5050,0.9400
3.5060,0.9400
3.5070,0.9400
3.5080,0.9400
3.5090,0.9400
3.5100,0.9400
3.5110,0.9400
3.5120,0.9400
3.5130,0.9400
3.5140,0.9400
3.5150,0.9400
3.5160,0.9400
3.5170,0.9400
3.5180,0.9400
3.5190,0.9400
3.5200,0.9400
3.5210,0.9400
3.5220,0.9400
3.5230,0.9400
3.5240,0.9399
3.5250,0.9399
3.5260,0.9399
3.5270,0.9399
3.5280,0.9399
3.5290,0.9399
3.5300,0.9399
3.5310,0.9399
3.5320,0.9399
3.5330,0.9399
3.5340,0.9399
3.5350,0.9399
3.5360,0.9398
3.5370,0.9398
3.5380,0.9398
3.5390,0.9398
3.5400,0.9398
3.5410,0.9398
3.5420,0.9398
3.5430,0.9398
3.5440,0.9397
3.5450,0.9397
3.5460,0.9397
3.5470,0.9397
3.5480,0.9397
3.5490,0.9397
3.5500,0.9397
3.5510,0.9396
3.5520,0.9396
3.5530,0.9396
3.5540,0.9396
3.5550,0.9396
3.5560,0.9395
3.5570,0.9395
3.5580,0.9395
3.5590,0.9395
3.5600,0.9395
3.5610,0.9394
3.5620,0.9394
3.5630,0.9394
3.5640,0.9394
3.5650,0.9394
3.5660,0.9393
3.5670,0.9393
3.5680,0.9393
3.5690,0.9393
3.5700,0.9392
3.5710,0.9392
3.5720,0.9392
3.5730,0.9391
3.5740,0.9391
3.5750,0.9391
3.5760,0.9391
3.5770,0.9390
3.5780,0.9390
3.5790,0.9390
3.5800,0.9389
3.5810,0.9389
3.5820,0.9389
3.5830,0.9388
3.5840,0.9388
3.5850,0.9388
3.5860,0.9387
3.5870,0.9387
3.5880,0.9387
3.5890,0.9386
3.5900,0.9386
3.5910,0.9386
3.5920,0.9385
3.5930,0.9385
3.5940,0.9384
3.5950,0.9384
3.5960,0.9384
3.5970,0.9383
3.5980,0.9383
3.5990,0.9382
3.6000,0.9382
3.6010,0.9381
3.6020,0.9381
3.6030,0.9380
3.6040,0.9380
3.6050,0.9380
3.6060,0.9379
3.6070,0.9379
3.6080,0.9378
3.6090,0.9378
3.6100,0.9377
3.6110,0.9377
3.6120,0.9376
3.6130,0.9376
3.6140,0.9375
3.6150,0.9375
3.6160,0.9374
3.6170,0.9373
3.6180,0.9373
3.6190,0.9372
3.6200,0.9372
3.6210,0.9371
3.6220,0.9371
3.6230,0.9370
3.6240,0.9369
3.6250,0.9369
3.6260,0.9368
3.6270,0.9368
3.6280,0.9367
3.6290,0.9366
3.6300,0.9366
3.6310,0.9365
3.6320,0.9365
3.6330,0.9364
3.6340,0.9363
3.6350,0.9363
3.6360,0.9362
3.6370,0.9361
3.6380,0.9361
3.6390,0.9360
3.6400,0.9359
3.6410,0.9359
3.6420,0.9358
3.6430,0.9357
3.6440,0.9357
3.6450,0.9356
3.6460,0.9355
3.6470,0.9354
3.6480,0.9354
3.6490,0.9353
3.6500,0.9352
3.6510,0.9351
3.6520,0.9351
3.6530,0.9350
3.6540,0.9349
3.6550,0.9348
3.6560,0.9348
3.6570,0.9347
3.6580,0.9346
3.6590,0.9345
3.6600,0.9344
3.6610,0.9344
3.6620,0.9343
3.6630,0.9342
3.6640,0.9341
3.6650,0.9340
3.6660,0.9340
3.6670,0.9339
3.6680,0.9338
3.6690,0.9337
3.6700,0.9336
3.6710,0.9335
3.6720,0.9334
3.6730,0.9334
3.6740,0.9333
3.6750,0.9332
3.6760,0.9331
3.6770,0.9330
3.6780,0.9329
3.6790,0.9328
3.6800,0.9327
3.6810,0.9326
3.6820,0.9326
3.6830,0.9325
3.6840,0.9324
3.6850,0.9323
3.6860,0.9322
3.6870,0.9321
3.6880,0.9320
3.6890,0.9319
3.6900,0.9318
3.6910,0.9317
3.6920,0.9316
3.6930,0.9315
3.6940,0.9314
3.6950,0.9313
3.6960,0.9312
3.6970,0.9311
3.6980,0.9310
3.6990,0.9309
3.7000,0.9308
3.7010,0.9308
3.7020,0.9307
3.7030,0.9306
3.7040,0.9305
3.7050,0.9304
3.7060,0.9303
3.7070,0.9302
3.7080,0.9301
3.7090,0.9300
3.7100,0.9298
3.7110,0.9297
3.7120,0.9296
3.7130,0.9295
3.7140,0.9294
3.7150,0.9293
3.7160,0.9292
3.7170,0.9291
3.7180,0.9290
3.7190,0.9289
3.7200,0.9288
3.7210,0.9287
3.7220,0.9286
3.7230,0.9285
3.7240,0.9284
3.7250,0.9283
3.7260,0.9282
3.7270,0.9281
3.7280,0.9280
3.7290,0.9279
3.7300,0.9278
3.7310,0.9276
3.7320,0.9275
3.7330,0.9274
3.7340,0.9273
3.7350,0.9272
3.7360,0.9271
3.7370,0.9270
3.7380,0.9269
3.7390,0.9268
3.7400,0.9267
3.7410,0.9266
3.7420,0.9265
3.7430,0.9263
3.7440,0.9262
3.7450,0.9261
3.7460,0.9260
3.7470,0.9259
3.7480,0.9258
3.7490,0.9257
3.7500,0.9256
3.7510,0.9255
3.7520,0.9254
3.7530,0.9252
3.7540,0.9251
3.7550,0.9250
3.7560,0.9249
3.7570,0.9248
3.7580,0.9247
3.7590,0.9246
3.7600,0.9245
3.7610,0.9243
3.7620,0.9242
3.7630,0.9241
3.7640,0.9240
3.7650,0.9239
3.7660,0.9238
3.7670,0.9237
3.7680,0.9236
3.7690,0.9234
3.7700,0.9233
3.7710,0.9232
3.7720,0.9231
3.7730,0.9230
3.7740,0.9229
3.7750,0.9228
3.7760,0.9227
3.7770,0.9225
3.7780,0.9224
3.7790,0.9223
3.7800,0.9222
3.7810,0.9221
3.7820,0.9220
3.7830,0.9219
3.7840,0.9218
3.7850,0.9216
3.7860,0.9215
3.7870,0.9214
3.7880,0.9213
3.7890,0.9212
3.7900,0.9211
3.7910,0.9210
3.7920,0.9209
3.7930,0.9207
3.7940,0.9206
3.7950,0.9205
3.7960,0.9204
3.7970,0.9203
3.7980,0.9202
3.7990,0.9201
3.8000,0.9200
3.8010,0.9198
3.8020,0.9197
3.8030,0.9196
3.8040,0.9195
3.8050,0.9194
3.8060,0.9193
3.8070,0.9192
3.8080,0.9191
3.8090,0.9190
3.8100,0.9188
3.8110,0.9187
3.8120,0.9186
3.8130,0.9185
3.8140,0.9184
3.8150,0.9183
3.8160,0.9182
3.8170,0.9181
3.8180,0.9180
3.8190,0.9179
3.8200,0.9178
3.8210,0.9176
3.8220,0.9175
3.8230,0.9174
3.8240,0.9173
3.8250,0.9172
3.8260,0.9171
3.8270,0.9170
3.8280,0.9169
3.8290,0.9168
3.8300,0.9167
3.8310,0.9166
3.8320,0.9165
3.8330,0.9164
3.8340,0.9162
3.8350,0.9161
3.8360,0.9160
3.8370,0.9159
3.8380,0.9158
3.8390,0.9157
3.8400,0.9156
3.8410,0.9155
3.8420,0.9154
3.8430,0.9153
3.8440,0.9152
3.8450,0.9151
3.8460,0.9150
3.8470,0.9149
3.8480,0.9148
3.8490,0.9147
3.8500,0.9146
3.8510,0.9145
3.8520,0.9144
3.8530,0.9143
3.8540,0.9142
3.8550,0.9141
3.8560,0.9140
3.8570,0.9139
3.8580,0.9138
3.8590,0.9137
3.8600,0.9136
3.8610,0.9135
3.8620,0.9134
3.8630,0.9133
3.8640,0.9132
3.8650,0.9131
3.8660,0.9130
3.8670,0.9129
3.8680,0.9128
3.8690,0.9127
3.8700,0.9126
3.8710,0.9125
3.8720,0.9124
3.8730,0.9123
3.8740,0.9122
3.8750,0.9121
3.8760,0.9120
3.8770,0.9119
3.8780,0.9118
3.8790,0.9118
3.8800,0.9117
3.8810,0.9116
3.8820,0.9115
3.8830,0.9114
3.8840,0.9113
3.8850,0.9112
3.8860,0.9111
3.8870,0.9110
3.8880,0.9109
3.8890,0.9108
3.8900,0.9108
3.8910,0.9107
3.8920,0.9106
3.8930,0.9105
3.8940,0.9104
3.8950,0.9103
3.8960,0.9102
3.8970,0.9101
3.8980,0.9100
3.8990,0.9100
3.9000,0.9099
3.9010,0.9098
3.9020,0.9097
3.9030,0.9096
3.9040,0.9095
3.9050,0.9095
3.9060,0.9094
3.9070,0.9093
3.9080,0.9092
3.9090,0.9091
3.9100,0.9090
3.9110,0.9090
3.9120,0.9089
3.9130,0.9088
3.9140,0.9087
3.9150,0.9086
3.9160,0.9085
3.9170,0.9085
3.9180,0.9084
3.9190,0.9083
3.9200,0.9082
3.9210,0.9081
3.9220,0.9081
3.9230,0.9080
3.9240,0.9079
3.9250,0.9078
3.9260,0.9078
3.9270,0.9077
3.9280,0.9076
3.9290,0.9075
3.9300,0.9074
3.9310,0.9074
3.9320,0.9073
3.9330,0.9072
3.9340,0.9071
3.9350,0.9071
3.9360,0.9070
3.9370,0.9069
3.9380,0.9068
3.9390,0.9068
3.9400,0.9067
3.9410,0.9066
3.9420,0.9066
3.9430,0.9065
3.9440,0.9064
3.9450,0.9063
3.9460,0.9063
3.9470,0.9062
3.9480,0.9061
3.9490,0.9061
3.9500,0.9060
3.9510,0.9059
3.9520,0.9058
3.9530,0.9058
3.9540,0.9057
3.9550,0.9056
3.9560,0.9056
3.9570,0.9055
3.9580,0.9054
3.9590,0.9054
3.9600,0.9053
3.9610,0.9052
3.9620,0.9052
3.9630,0.9051
3.9640,0.9050
3.9650,0.9050
3.9660,0.9049
3.9670,0.9048
3.9680,0.9047
3.9690,0.9047
3.9700,0.9046
3.9710,0.9045
3.9720,0.9045
3.9730,0.9044
3.9740,0.9044
3.9750,0.9043
3.9760,0.9042
3.9770,0.9042
3.9780,0.9041
3.9790,0.9040
3.9800,0.9040
3.9810,0.9039
3.9820,0.9038
3.9830,0.9038
3.9840,0.9037
3.9850,0.9036
3.9860,0.9036
3.9870,0.9035
3.9880,0.9034
3.9890,0.9034
3.9900,0.9033
3.9910,0.9032
3.9920,0.9032
3.9930,0.9031
3.9940,0.9031
3.9950,0.9030
3.9960,0.9029
3.9970,0.9029
3.9980,0.9028
3.9990,0.9027
4.0000,0.9027
4.0010,0.9026
4.0020,0.9025
4.0030,0.9025
4.0040,0.9024
4.0050,0.9024
4.0060,0.9023
4.0070,0.9022
4.0080,0.9022
4.0090,0.9021
4.0100,0.9020
4.0110,0.9020
4.0120,0.9019
4.0130,0.9018
4.0140,0.9018
4.0150,0.9017
4.0160,0.9017
4.0170,0.9016
4.0180,0.9015
4.0190,0.9015
4.0200,0.9014
4.0210,0.9013
4.0220,0.9013
4.0230,0.9012
4.0240,0.9011
4.0250,0.9011
4.0260,0.9010
4.0270,0.9010
4.0280,0.9009
4.0290,0.9008
4.0300,0.9008
4.0310,0.9007
4.0320,0.9006
4.0330,0.9006
4.0340,0.9005
4.0350,0.9004
4.0360,0.9004
4.0370,0.9003
4.0380,0.9002
4.0390,0.9002
4.0400,0.9001
4.0410,0.9000
4.0420,0.9000
4.0430,0.8999
4.0440,0.8998
4.0450,0.8998
4.0460,0.8997
4.0470,0.8996
4.0480,0.8996
4.0490,0.8995
4.0500,0.8994
4.0510,0.8994
4.0520,0.8993
4.0530,0.8992
4.0540,0.8992
4.0550,0.8991
4.0560,0.8990
4.0570,0.8990
4.0580,0.8989
4.0590,0.8988
4.0600,0.8987
4.0610,0.8987
4.0620,0.8986
4.0630,0.8985
4.0640,0.8985
4.0650,0.8984
4.0660,0.8983
4.0670,0.8982
4.0680,0.8982
4.0690,0.8981
4.0700,0.8980
4.0710,0.8980
4.0720,0.8979
4.0730,0.8978
4.0740,0.8977
4.0750,0.8977
4.0760,0.8976
4.0770,0.8975
4.0780,0.8974
4.0790,0.8974
4.0800,0.8973
4.0810,0.8972
4.0820,0.8971
4.0830,0.8971
4.0840,0.8970
4.0850,0.8969
4.0860,0.8968
4.0870,0.8968
4.0880,0.8967
4.0890,0.8966
4.0900,0.8965
4.0910,0.8964
4.0920,0.8964
4.0930,0.8963
4.0940,0.8962
4.0950,0.8961
4.0960,0.8960
4.0970,0.8960
4.0980,0.8959
4.0990,0.8958
4.1000,0.8957
4.1010,0.8956
4.1020,0.8955
4.1030,0.8955
4.1040,0.8954
4.1050,0.8953
4.1060,0.8952
4.1070,0.8951
4.1080,0.8950
4.1090,0.8949
4.1100,0.8949
4.1110,0.8948
4.1120,0.8947
4.1130,0.8946
4.1140,0.8945
4.1150,0.8944
4.1160,0.8943
4.1170,0.8942
4.1180,0.8941
4.1190,0.8940
4.1200,0.8940
4.1210,0.8939
4.1220,0.8938
4.1230,0.8937
4.1240,0.8936
4.1250,0.8935
4.1260,0.8934
4.1270,0.8933
4.1280,0.8932
4.1290,0.8931
4.1300,0.8930
4.1310,0.8929
4.1320,0.8928
4.1330,0.8927
4.1340,0.8926
4.1350,0.8925
4.1360,0.8924
4.1370,0.8923
4.1380,0.8922
4.1390,0.8921
4.1400,0.8920
4.1410,0.8919
4.1420,0.8918
4.1430,0.8917
4.1440,0.8916
4.1450,0.8915
4.1460,0.8914
4.1470,0.8913
4.1480,0.8912
4.1490,0.8911
4.1500,0.8910
4.1510,0.8909
4.1520,0.8908
4.1530,0.8907
4.1540,0.8906
4.1550,0.8905
4.1560,0.8904
4.1570,0.8903
4.1580,0.8901
4.1590,0.8900
4.1600,0.8899
4.1610,0.8898
4.1620,0.8897
4.1630,0.8896
4.1640,0.8895
4.1650,0.8894
4.1660,0.8893
4.1670,0.8891
4.1680,0.8890
4.1690,0.8889
4.1700,0.8888
4.1710,0.8887
4.1720,0.8886
4.1730,0.8885
4.1740,0.8883
4.1750,0.8882
4.1760,0.8881
4.1770,0.8880
4.1780,0.8879
4.1790,0.8878
4.1800,0.8876
4.1810,0.8875
4.1820,0.8874
4.1830,0.8873
4.1840,0.8872
4.1850,0.8870
4.1860,0.8869
4.1870,0.8868
4.1880,0.8867
4.1890,0.8865
4.1900,0.8864
4.1910,0.8863
4.1920,0.8862
4.1930,0.8861
4.1940,0.8859
4.1950,0.8858
4.1960,0.8857
4.1970,0.8856
4.1980,0.8854
4.1990,0.8853
4.2000,0.8852
4.2010,0.8850
4.2020,0.8849
4.2030,0.8848
4.2040,0.8847
4.2050,0.8845
4.2060,0.8844
4.2070,0.8843
4.2080,0.8841
4.2090,0.8840
4.2100,0.8839
4.2110,0.8837
4.2120,0.8836
4.2130,0.8835
4.2140,0.8834
4.2150,0.8832
4.2160,0.8831
4.2170,0.8830
4.2180,0.8828
4.2190,0.8827
4.2200,0.8826
4.2210,0.8824
4.2220,0.8823
4.2230,0.8821
4.2240,0.8820
4.2250,0.8819
4.2260,0.8817
4.2270,0.8816
4.2280,0.8815
4.2290,0.8813
4.2300,0.8812
4.2310,0.8811
4.2320,0.8809
4.2330,0.8808
4.2340,0.8806
4.2350,0.8805
4.2360,0.8804
4.2370,0.8802
4.2380,0.8801
4.2390,0.8799
4.2400,0.8798
4.2410,0.8797
4.2420,0.8795
4.2430,0.8794
4.2440,0.8792
4.2450,0.8791
4.2460,0.8790
4.2470,0.8788
4.2480,0.8787
4.2490,0.8785
4.2500,0.8784
4.2510,0.8783
4.2520,0.8781
4.2530,0.8780
4.2540,0.8778
4.2550,0.8777
4.2560,0.8775
4.2570,0.8774
4.2580,0.8773
4.2590,0.8771
4.2600,0.8770
4.2610,0.8768
4.2620,0.8767
4.2630,0.8765
4.2640,0.8764
4.2650,0.8762
4.2660,0.8761
4.2670,0.8760
4.2680,0.8758
4.2690,0.8757
4.2700,0.8755
4.2710,0.8754
4.2720,0.8752
4.2730,0.8751
4.2740,0.8750
4.2750,0.8748
4.2760,0.8747
4.2770,0.8745
4.2780,0.8744
4.2790,0.8742
4.2800,0.8741
4.2810,0.8739
4.2820,0.8738
4.2830,0.8737
4.2840,0.8735
4.2850,0.8734
4.2860,0.8732
4.2870,0.8731
4.2880,0.8729
4.2890,0.8728
4.2900,0.8727
4.2910,0.8725
4.2920,0.8724
4.2930,0.8722
4.2940,0.8721
4.2950,0.8719
4.2960,0.8718
4.2970,0.8717
4.2980,0.8715
4.2990,0.8714
4.3000,0.8712
4.3010,0.8711
4.3020,0.8709
4.3030,0.8708
4.3040,0.8707
4.3050,0.8705
4.3060,0.8704
4.3070,0.8702
4.3080,0.8701
4.3090,0.8700
4.3100,0.8698
4.3110,0.8697
4.3120,0.8695
4.3130,0.8694
4.3140,0.8693
4.3150,0.8691
4.3160,0.8690
4.3170,0.8688
4.3180,0.8687
4.3190,0.8686
4.3200,0.8684
4.3210,0.8683
4.3220,0.8682
4.3230,0.8680
4.3240,0.8679
4.3250,0.8678
4.3260,0.8676
4.3270,0.8675
4.3280,0.8673
4.3290,0.8672
4.3300,0.8671
4.3310,0.8669
4.3320,0.8668
4.3330,0.8667
4.3340,0.8665
4.3350,0.8664
4.3360,0.8663
4.3370,0.8662
4.3380,0.8660
4.3390,0.8659
4.3400,0.8658
4.3410,0.8656
4.3420,0.8655
4.3430,0.8654
4.3440,0.8653
4.3450,0.8651
4.3460,0.8650
4.3470,0.8649
4.3480,0.8648
4.3490,0.8646
4.3500,0.8645
4.3510,0.8644
4.3520,0.8643
4.3530,0.8641
4.3540,0.8640
4.3550,0.8639
4.3560,0.8638
4.3570,0.8636
4.3580,0.8635
4.3590,0.8634
4.3600,0.8633
4.3610,0.8632
4.3620,0.8631
4.3630,0.8629
4.3640,0.8628
4.3650,0.8627
4.3660,0.8626
4.3670,0.8625
4.3680,0.8624
4.3690,0.8622
4.3700,0.8621
4.3710,0.8620
4.3720,0.8619
4.3730,0.8618
4.3740,0.8617
4.3750,0.8616
4.3760,0.8615
4.3770,0.8614
4.3780,0.8613
4.3790,0.8612
4.3800,0.8610
4.3810,0.8609
4.3820,0.8608
4.3830,0.8607
4.3840,0.8606
4.3850,0.8605
4.3860,0.8604
4.3870,0.8603
4.3880,0.8602
4.3890,0.8601
4.3900,0.8600
4.3910,0.8599
4.3920,0.8598
4.3930,0.8597
4.3940,0.8596
4.3950,0.8596
4.3960,0.8595
4.3970,0.8594
4.3980,0.8593
4.3990,0.8592
4.4000,0.8591
4.4010,0.8590
4.4020,0.8589
4.4030,0.8588
4.4040,0.8587
4.4050,0.8587
4.4060,0.8586
4.4070,0.8585
4.4080,0.8584
4.4090,0.8583
4.4100,0.8582
4.4110,0.8582
4.4120,0.8581
4.4130,0.8580
4.4140,0.8579
4.4150,0.8578
4.4160,0.8578
4.4170,0.8577
4.4180,0.8576
4.4190,0.8575
4.4200,0.8575
4.4210,0.8574
4.4220,0.8573
4.4230,0.8572
4.4240,0.8572
4.4250,0.8571
4.4260,0.8570
4.4270,0.8570
4.4280,0.8569
4.4290,0.8568
4.4300,0.8568
4.4310,0.8567
4.4320,0.8566
4.4330,0.8566
4.4340,0.8565
4.4350,0.8565
4.4360,0.8564
4.4370,0.8563
4.4380,0.8563
4.4390,0.8562
4.4400,0.8562
4.4410,0.8561
4.4420,0.8560
4.4430,0.8560
4.4440,0.8559
4.4450,0.8559
4.4460,0.8558
4.4470,0.8558
4.4480,0.8557
4.4490,0.8557
4.4500,0.8556
4.4510,0.8556
4.4520,0.8555
4.4530,0.8555
4.4540,0.8555
4.4550,0.8554
4.4560,0.8554
4.4570,0.8553
4.4580,0.8553
4.4590,0.8552
4.4600,0.8552
4.4610,0.8552
4.4620,0.8551
4.4630,0.8551
4.4640,0.8550
4.4650,0.8550
4.4660,0.8550
4.4670,0.8549
4.4680,0.8549
4.4690,0.8549
4.4700,0.8548
4.4710,0.8548
4.4720,0.8548
4.4730,0.8548
4.4740,0.8547
4.4750,0.8547
4.4760,0.8547
4.4770,0.8547
4.4780,0.8546
4.4790,0.8546
4.4800,0.8546
4.4810,0.8546
4.4820,0.8545
4.4830,0.8545
4.4840,0.8545
4.4850,0.8545
4.4860,0.8545
4.4870,0.8544
4.4880,0.8544
4.4890,0.8544
4.4900,0.8544
4.4910,0.8544
4.4920,0.8544
4.4930,0.8544
4.4940,0.8543
4.4950,0.8543
4.4960,0.8543
4.4970,0.8543
4.4980,0.8543
4.4990,0.8543
4.5000,0.8543
4.5010,0.8543
4.5020,0.8543
4.5030,0.8543
4.5040,0.8543
4.5050,0.8543
4.5060,0.8543
4.5070,0.8543
4.5080,0.8543
4.5090,0.8543
4.5100,0.8543
4.5110,0.8543
4.5120,0.8543
4.5130,0.8543
4.5140,0.8543
4.5150,0.8543
4.5160,0.8543
4.5170,0.8543
4.5180,0.8543
4.5190,0.8543
4.5200,0.8543
4.5210,0.8543
4.5220,0.8543
4.5230,0.8544
4.5240,0.8544
4.5250,0.8544
4.5260,0.8544
4.5270,0.8544
4.5280,0.8544
4.5290,0.8544
4.5300,0.8545
4.5310,0.8545
4.5320,0.8545
4.5330,0.8545
4.5340,0.8545
4.5350,0.8545
4.5360,0.8546
4.5370,0.8546
4.5380,0.8546
4.5390,0.8546
4.5400,0.8546
4.5410,0.8547
4.5420,0.8547
4.5430,0.8547
4.5440,0.8547
4.5450,0.8548
4.5460,0.8548
4.5470,0.8548
4.5480,0.8548
4.5490,0.8549
4.5500,0.8549
4.5510,0.8549
4.5520,0.8550
4.5530,0.8550
4.5540,0.8550
4.5550,0.8551
4.5560,0.8551
4.5570,0.8551
4.5580,0.8551
4.5590,0.8552
4.5600,0.8552
4.5610,0.8552
4.5620,0.8553
4.5630,0.8553
4.5640,0.8554
4.5650,0.8554
4.5660,0.8554
4.5670,0.8555
4.5680,0.8555
4.5690,0.8555
4.5700,0.8556
4.5710,0.8556
4.5720,0.8557
4.5730,0.8557
4.5740,0.8557
4.5750,0.8558
4.5760,0.8558
4.5770,0.8558
4.5780,0.8559
4.5790,0.8559
4.5800,0.8560
4.5810,0.8560
4.5820,0.8561
4.5830,0.8561
4.5840,0.8561
4.5850,0.8562
4.5860,0.8562
4.5870,0.8563
4.5880,0.8563
4.5890,0.8564
4.5900,0.8564
4.5910,0.8564
4.5920,0.8565
4.5930,0.8565
4.5940,0.8566
4.5950,0.8566
4.5960,0.8567
4.5970,0.8567
4.5980,0.8568
4.5990,0.8568
4.6000,0.8569
4.6010,0.8569
4.6020,0.8570
4.6030,0.8570
4.6040,0.8570
4.6050,0.8571
4.6060,0.8571
4.6070,0.8572
4.6080,0.8572
4.6090,0.8573
4.6100,0.8573
4.6110,0.8574
4.6120,0.8574
4.6130,0.8575
4.6140,0.8575
4.6150,0.8576
4.6160,0.8576
4.6170,0.8577
4.6180,0.8577
4.6190,0.8578
4.6200,0.8578
4.6210,0.8579
4.6220,0.8579
4.6230,0.8580
4.6240,0.8580
4.6250,0.8581
4.6260,0.8581
4.6270,0.8582
4.6280,0.8582
4.6290,0.8583
4.6300,0.8583
4.6310,0.8584
4.6320,0.8584
4.6330,0.8585
4.6340,0.8585
4.6350,0.8586
4.6360,0.8586
4.6370,0.8587
4.6380,0.8587
4.6390,0.8587
4.6400,0.8588
4.6410,0.8588
4.6420,0.8589
4.6430,0.8589
4.6440,0.8590
4.6450,0.8590
4.6460,0.8591
4.6470,0.8591
4.6480,0.8592
4.6490,0.8592
4.6500,0.8593
4.6510,0.8593
4.6520,0.8594
4.6530,0.8594
4.6540,0.8595
4.6550,0.8595
4.6560,0.8595
4.6570,0.8596
4.6580,0.8596
4.6590,0.8597
4.6600,0.8597
4.6610,0.8598
4.6620,0.8598
4.6630,0.8599
4.6640,0.8599
4.6650,0.8599
4.6660,0.8600
4.6670,0.8600
4.6680,0.8601
4.6690,0.8601
4.6700,0.8602
4.6710,0.8602
4.6720,0.8602
4.6730,0.8603
4.6740,0.8603
4.6750,0.8604
4.6760,0.8604
4.6770,0.8604
4.6780,0.8605
4.6790,0.8605
4.6800,0.8606
4.6810,0.8606
4.6820,0.8606
4.6830,0.8607
4.6840,0.8607
4.6850,0.8608
4.6860,0.8608
4.6870,0.8608
4.6880,0.8609
4.6890,0.8609
4.6900,0.8609
4.6910,0.8610
4.6920,0.8610
4.6930,0.8610
4.6940,0.8611
4.6950,0.8611
4.6960,0.8611
4.6970,0.8612
4.6980,0.8612
4.6990,0.8612
4.7000,0.8613
4.7010,0.8613
4.7020,0.8613
4.7030,0.8613
4.7040,0.8614
4.7050,0.8614
4.7060,0.8614
4.7070,0.8615
4.7080,0.8615
4.7090,0.8615
4.7100,0.8615
4.7110,0.8616
4.7120,0.8616
4.7130,0.8616
4.7140,0.8616
4.7150,0.8617
4.7160,0.8617
4.7170,0.8617
4.7180,0.8617
4.7190,0.8618
4.7200,0.8618
4.7210,0.8618
4.7220,0.8618
4.7230,0.8618
4.7240,0.8619
4.7250,0.8619
4.7260,0.8619
4.7270,0.8619
4.7280,0.8619
4.7290,0.8619
4.7300,0.8620
4.7310,0.8620
4.7320,0.8620
4.7330,0.8620
4.7340,0.8620
4.7350,0.8620
4.7360,0.8620
4.7370,0.8621
4.7380,0.8621
4.7390,0.8621
4.7400,0.8621
4.7410,0.8621
4.7420,0.8621
4.7430,0.8621
4.7440,0.8621
4.7450,0.8621
4.7460,0.8621
4.7470,0.8621
4.7480,0.8621
4.7490,0.8622
4.7500,0.8622
4.7510,0.8622
4.7520,0.8622
4.7530,0.8622
4.7540,0.8622
4.7550,0.8622
4.7560,0.8622
4.7570,0.8622
4.7580,0.8622
4.7590,0.8622
4.7600,0.8622
4.7610,0.8622
4.7620,0.8622
4.7630,0.8622
4.7640,0.8622
4.7650,0.8621
4.7660,0.8621
4.7670,0.8621
4.7680,0.8621
4.7690,0.8621
4.7700,0.8621
4.7710,0.8621
4.7720,0.8621
4.7730,0.8621
4.7740,0.8621
4.7750,0.8621
4.7760,0.8620
4.7770,0.8620
4.7780,0.8620
4.7790,0.8620
4.7800,0.8620
4.7810,0.8620
4.7820,0.8620
4.7830,0.8619
4.7840,0.8619
4.7850,0.8619
4.7860,0.8619
4.7870,0.8619
4.7880,0.8618
4.7890,0.8618
4.7900,0.8618
4.7910,0.8618
4.7920,0.8617
4.7930,0.8617
4.7940,0.8617
4.7950,0.8617
4.7960,0.8616
4.7970,0.8616
4.7980,0.8616
4.7990,0.8616
4.8000,0.8615
4.8010,0.8615
4.8020,0.8615
4.8030,0.8614
4.8040,0.8614
4.8050,0.8614
4.8060,0.8613
4.8070,0.8613
4.8080,0.8613
4.8090,0.8612
4.8100,0.8612
4.8110,0.8612
4.8120,0.8611
4.8130,0.8611
4.8140,0.8610
4.8150,0.8610
4.8160,0.8610
4.8170,0.8609
4.8180,0.8609
4.8190,0.8608
4.8200,0.8608
4.8210,0.8608
4.8220,0.8607
4.8230,0.8607
4.8240,0.8606
4.8250,0.8606
4.8260,0.8605
4.8270,0.8605
4.8280,0.8604
4.8290,0.8604
4.8300,0.8603
4.8310,0.8603
4.8320,0.8602
4.8330,0.8602
4.8340,0.8601
4.8350,0.8601
4.8360,0.8600
4.8370,0.8599
4.8380,0.8599
4.8390,0.8598
4.8400,0.8598
4.8410,0.8597
4.8420,0.8596
4.8430,0.8596
4.8440,0.8595
4.8450,0.8595
4.8460,0.8594
4.8470,0.8593
4.8480,0.8593
4.8490,0.8592
4.8500,0.8591
4.8510,0.8591
4.8520,0.8590
4.8530,0.8589
4.8540,0.8589
4.8550,0.8588
4.8560,0.8587
4.8570,0.8587
4.8580,0.8586
4.8590,0.8585
4.8600,0.8584
4.8610,0.8584
4.8620,0.8583
4.8630,0.8582
4.8640,0.8581
4.8650,0.8581
4.8660,0.8580
4.8670,0.8579
4.8680,0.8578
4.8690,0.8578
4.8700,0.8577
4.8710,0.8576
4.8720,0.8575
4.8730,0.8574
4.8740,0.8574
4.8750,0.8573
4.8760,0.8572
4.8770,0.8571
4.8780,0.8570
4.8790,0.8569
4.8800,0.8568
4.8810,0.8568
4.8820,0.8567
4.8830,0.8566
4.8840,0.8565
4.8850,0.8564
4.8860,0.8563
4.8870,0.8562
4.8880,0.8561
4.8890,0.8560
4.8900,0.8559
4.8910,0.8558
4.8920,0.8558
4.8930,0.8557
4.8940,0.8556
4.8950,0.8555
4.8960,0.8554
4.8970,0.8553
4.8980,0.8552
4.8990,0.8551
4.9000,0.8550
4.9010,0.8549
4.9020,0.8548
4.9030,0.8547
4.9040,0.8546
4.9050,0.8545
4.9060,0.8544
4.9070,0.8542
4.9080,0.8541
4.9090,0.8540
4.9100,0.8539
4.9110,0.8538
4.9120,0.8537
4.9130,0.8536
4.9140,0.8535
4.9150,0.8534
4.9160,0.8533
4.9170,0.8532
4.9180,0.8531
4.9190,0.8529
4.9200,0.8528
4.9210,0.8527
4.9220,0.8526
4.9230,0.8525
4.9240,0.8524
4.9250,0.8523
4.9260,0.8521
4.9270,0.8520
4.9280,0.8519
4.9290,0.8518
4.9300,0.8517
4.9310,0.8515
4.9320,0.8514
4.9330,0.8513
4.9340,0.8512
4.9350,0.8511
4.9360,0.8509
4.9370,0.8508
4.9380,0.8507
4.9390,0.8506
4.9400,0.8504
4.9410,0.8503
4.9420,0.8502
4.9430,0.8501
4.9440,0.8499
4.9450,0.8498
4.9460,0.8497
4.9470,0.8495
4.9480,0.8494
4.9490,0.8493
4.9500,0.8491
4.9510,0.8490
4.9520,0.8489
4.9530,0.8487
4.9540,0.8486
4.9550,0.8485
4.9560,0.8483
4.9570,0.8482
4.9580,0.8481
4.9590,0.8479
4.9600,0.8478
4.9610,0.8476
4.9620,0.8475
4.9630,0.8474
4.9640,0.8472
4.9650,0.8471
4.9660,0.8469
4.9670,0.8468
4.9680,0.8467
4.9690,0.8465
4.9700,0.8464
4.9710,0.8462
4.9720,0.8461
4.9730,0.8459
4.9740,0.8458
4.9750,0.8456
4.9760,0.8455
4.9770,0.8453
4.9780,0.8452
4.9790,0.8451
4.9800,0.8449
4.9810,0.8447
4.9820,0.8446
4.9830,0.8444
4.9840,0.8443
4.9850,0.8441
4.9860,0.8440
4.9870,0.8438
4.9880,0.8437
4.9890,0.8435
4.9900,0.8434
4.9910,0.8432
4.9920,0.8431
4.9930,0.8429
4.9940,0.8427
4.9950,0.8426
4.9960,0.8424
4.9970,0.8423
4.9980,0.8421
4.9990,0.8419
5.0000,0.8418
5.0010,0.8416
5.0020,0.8415
5.0030,0.8413
5.0040,0.8411
5.0050,0.8410
5.0060,0.8408
5.0070,0.8406
5.0080,0.8404
5.0090,0.8403
5.0100,0.8401
5.0110,0.8399
5.0120,0.8398
5.0130,0.8396
5.0140,0.8394
5.0150,0.8392
5.0160,0.8391
5.0170,0.8389
5.0180,0.8387
5.0190,0.8386
5.0200,0.8384
5.0210,0.8382
5.0220,0.8380
5.0230,0.8379
5.0240,0.8377
5.0250,0.8375
5.0260,0.8373
5.0270,0.8371
5.0280,0.8370
5.0290,0.8368
5.0300,0.8366
5.0310,0.8364
5.0320,0.8362
5.0330,0.8361
5.0340,0.8359
5.0350,0.8357
5.0360,0.8355
5.0370,0.8353
5.0380,0.8352
5.0390,0.8350
5.0400,0.8348
5.0410,0.8346
5.0420,0.8344
5.0430,0.8342
5.0440,0.8340
5.0450,0.8339
5.0460,0.8337
5.0470,0.8335
5.0480,0.8333
5.0490,0.8331
5.0500,0.8329
5.0510,0.8327
5.0520,0.8325
5.0530,0.8324
5.0540,0.8322
5.0550,0.8320
5.0560,0.8318
5.0570,0.8316
5.0580,0.8314
5.0590,0.8312
5.0600,0.8310
5.0610,0.8308
5.0620,0.8306
5.0630,0.8304
5.0640,0.8302
5.0650,0.8300
5.0660,0.8298
5.0670,0.8297
5.0680,0.8295
5.0690,0.8293
5.0700,0.8291
5.0710,0.8289
5.0720,0.8287
5.0730,0.8285
5.0740,0.8283
5.0750,0.8281
5.0760,0.8279
5.0770,0.8277
5.0780,0.8275
5.0790,0.8273
5.0800,0.8271
5.0810,0.8269
5.0820,0.8267
5.0830,0.8265
5.0840,0.8263
5.0850,0.8261
5.0860,0.8259
5.0870,0.8257
5.0880,0.8254
5.0890,0.8252
5.0900,0.8250
5.0910,0.8248
5.0920,0.8246
5.0930,0.8244
5.0940,0.8242
5.0950,0.8240
5.0960,0.8238
5.0970,0.8236
5.0980,0.8234
5.0990,0.8232
5.1000,0.8230
5.1010,0.8228
5.1020,0.8226
5.1030,0.8223
5.1040,0.8221
5.1050,0.8219
5.1060,0.8217
5.1070,0.8215
5.1080,0.8213
5.1090,0.8211
5.1100,0.8209
5.1110,0.8206
5.1120,0.8204
5.1130,0.8202
5.1140,0.8200
5.1150,0.8198
5.1160,0.8195
5.1170,0.8193
5.1180,0.8191
5.1190,0.8189
5.1200,0.8187
5.1210,0.8184
5.1220,0.8182
5.1230,0.8180
5.1240,0.8178
5.1250,0.8176
5.1260,0.8173
5.1270,0.8171
5.1280,0.8169
5.1290,0.8167
5.1300,0.8164
5.1310,0.8162
5.1320,0.8160
5.1330,0.8157
5.1340,0.8155
5.1350,0.8153
5.1360,0.8151
5.1370,0.8148
5.1380,0.8146
5.1390,0.8144
5.1400,0.8141
5.1410,0.8139
5.1420,0.8137
5.1430,0.8134
5.1440,0.8132
5.1450,0.8130
5.1460,0.8127
5.1470,0.8125
5.1480,0.8123
5.1490,0.8120
5.1500,0.8118
5.1510,0.8115
5.1520,0.8113
5.1530,0.8111
5.1540,0.8108
5.1550,0.8106
5.1560,0.8104
5.1570,0.8101
5.1580,0.8099
5.1590,0.8096
5.1600,0.8094
5.1610,0.8092
5.1620,0.8089
5.1630,0.8087
5.1640,0.8084
5.1650,0.8082
5.1660,0.8079
5.1670,0.8077
5.1680,0.8075
5.1690,0.8072
5.1700,0.8070
5.1710,0.8067
5.1720,0.8065
5.1730,0.8062
5.1740,0.8060
5.1750,0.8058
5.1760,0.8055
5.1770,0.8053
5.1780,0.8050
5.1790,0.8048
5.1800,0.8045
5.1810,0.8043
5.1820,0.8040
5.1830,0.8038
5.1840,0.8035
5.1850,0.8033
5.1860,0.8030
5.1870,0.8028
5.1880,0.8025
5.1890,0.8023
5.1900,0.8020
5.1910,0.8018
5.1920,0.8015
5.1930,0.8013
5.1940,0.8010
5.1950,0.8008
5.1960,0.8005
5.1970,0.8003
5.1980,0.8000
5.1990,0.7998
5.2000,0.7995
5.2010,0.7993
5.2020,0.7991
5.2030,0.7988
5.2040,0.7986
5.2050,0.7983
5.2060,0.7981
5.2070,0.7979
5.2080,0.7977
5.2090,0.7974
5.2100,0.7972
5.2110,0.7970
5.2120,0.7968
5.2130,0.7966
5.2140,0.7964
5.2150,0.7961
5.2160,0.7959
5.2170,0.7957
5.2180,0.7955
5.2190,0.7953
5.2200,0.7951
5.2210,0.7950
5.2220,0.7948
5.2230,0.7946
5.2240,0.7944
5.2250,0.7942
5.2260,0.7940
5.2270,0.7938
5.2280,0.7936
5.2290,0.7934
5.2300,0.7932
5.2310,0.7930
5.2320,0.7928
5.2330,0.7927
5.2340,0.7925
5.2350,0.7923
5.2360,0.7921
5.2370,0.7919
5.2380,0.7917
5.2390,0.7915
5.2400,0.7913
5.2410,0.7911
5.2420,0.7909
5.2430,0.7907
5.2440,0.7905
5.2450,0.7903
5.2460,0.7901
5.2470,0.7899
5.2480,0.7897
5.2490,0.7895
5.2500,0.7893
5.2510,0.7891
5.2520,0.7888
5.2530,0.7886
5.2540,0.7884
5.2550,0.7882
5.2560,0.7879
5.2570,0.7877
5.2580,0.7875
5.2590,0.7872
5.2600,0.7870
5.2610,0.7867
5.2620,0.7865
5.2630,0.7862
5.2640,0.7859
5.2650,0.7857
5.2660,0.7854
5.2670,0.7851
5.2680,0.7848
5.2690,0.7846
5.2700,0.7843
5.2710,0.7840
5.2720,0.7837
5.2730,0.7834
5.2740,0.7831
5.2750,0.7828
5.2760,0.7824
5.2770,0.7821
5.2780,0.7818
5.2790,0.7814
5.2800,0.7810
5.2810,0.7807
5.2820,0.7803
5.2830,0.7799
5.2840,0.7795
5.2850,0.7791
5.2860,0.7787
5.2870,0.7783
5.2880,0.7779
5.2890,0.7775
5.2900,0.7772
5.2910,0.7768
5.2920,0.7765
5.2930,0.7761
5.2940,0.7758
5.2950,0.7754
5.2960,0.7749
5.2970,0.7744
5.2980,0.7739
5.2990,0.7732
5.3000,0.7725
5.3010,0.7716
5.3020,0.7707
5.3030,0.7696
5.3040,0.7684
5.3050,0.7670
5.3060,0.7656
5.3070,0.7639
5.3080,0.7622
5.3090,0.7602
5.3100,0.7580
5.3110,0.7557
5.3120,0.7532
5.3130,0.7505
5.3140,0.7476
5.3150,0.7446
5.3160,0.7414
5.3170,0.7381
5.3180,0.7346
5.3190,0.7310
5.3200,0.7273
5.3210,0.7234
5.3220,0.7194
5.3230,0.7153
5.3240,0.7111
5.3250,0.7067
5.3260,0.7023
5.3270,0.6977
5.3280,0.6931
5.3290,0.6884
5.3300,0.6835
5.3310,0.6785
5.3320,0.6735
5.3330,0.6684
5.3340,0.6631
5.3350,0.6578
5.3360,0.6524
5.3370,0.6470
5.3380,0.6414
5.3390,0.6359
5.3400,0.6302
5.3410,0.6245
5.3420,0.6187
5.3430,0.6128
5.3440,0.6069
5.3450,0.6010
5.3460,0.5950
5.3470,0.5890
5.3480,0.5829
5.3490,0.5768
5.3500,0.5707
5.3510,0.5646
5.3520,0.5584
5.3530,0.5522
5.3540,0.5460
5.3550,0.5397
5.3560,0.5335
5.3570,0.5272
5.3580,0.5210
5.3590,0.5147
5.3600,0.5085
5.3610,0.5022
5.3620,0.4960
5.3630,0.4898
5.3640,0.4836
5.3650,0.4774
5.3660,0.4712
5.3670,0.4651
5.3680,0.4590
5.3690,0.4529
5.3700,0.4469
5.3710,0.4409
5.3720,0.4350
5.3730,0.4291
5.3740,0.4232
5.3750,0.4174
5.3760,0.4117
5.3770,0.4060
5.3780,0.4004
5.3790,0.3948
5.3800,0.3894
5.3810,0.3839
5.3820,0.3786
5.3830,0.3733
5.3840,0.3682
5.3850,0.3631
5.3860,0.3581
5.3870,0.3532
5.3880,0.3484
5.3890,0.3438
5.3900,0.3393
5.3910,0.3349
5.3920,0.3306
5.3930,0.3264
5.3940,0.3224
5.3950,0.3184
5.3960,0.3146
5.3970,0.3108
5.3980,0.3071
5.3990,0.3035
5.4000,0.3000
5.4010,0.2965
5.4020,0.2932
5.4030,0.2898
5.4040,0.2865
5.4050,0.2833
5.4060,0.2800
5.4070,0.2768
5.4080,0.2736
5.4090,0.2704
5.4100,0.2671
5.4110,0.2639
5.4120,0.2606
5.4130,0.2574
5.4140,0.2541
5.4150,0.2508
5.4160,0.2475
5.4170,0.2442
5.4180,0.2409
5.4190,0.2376
5.4200,0.2344
5.4210,0.2311
5.4220,0.2278
5.4230,0.2246
5.4240,0.2214
5.4250,0.2182
5.4260,0.2150
5.4270,0.2118
5.4280,0.2086
5.4290,0.2054
5.4300,0.2023
5.4310,0.1991
5.4320,0.1960
5.4330,0.1929
5.4340,0.1898
5.4350,0.1867
5.4360,0.1836
5.4370,0.1806
5.4380,0.1776
5.4390,0.1745
5.4400,0.1715
5.4410,0.1686
5.4420,0.1656
5.4430,0.1627
5.4440,0.1598
5.4450,0.1569
5.4460,0.1540
5.4470,0.1511
5.4480,0.1483
5.4490,0.1455
5.4500,0.1427
5.4510,0.1400
5.4520,0.1373
5.4530,0.1346
5.4540,0.1319
5.4550,0.1293
5.4560,0.1267
5.4570,0.1241
5.4580,0.1215
5.4590,0.1190
5.4600,0.1165
5.4610,0.1141
5.4620,0.1117
5.4630,0.1093
5.4640,0.1069
5.4650,0.1046
5.4660,0.1023
5.4670,0.1001
5.4680,0.0979
5.4690,0.0957
5.4700,0.0935
5.4710,0.0914
5.4720,0.0894
5.4730,0.0874
5.4740,0.0854
5.4750,0.0834
5.4760,0.0815
5.4770,0.0797
5.4780,0.0779
5.4790,0.0761
5.4800,0.0744
5.4810,0.0727
5.4820,0.0710
5.4830,0.0695
5.4840,0.0679
5.4850,0.0664
5.4860,0.0650
5.4870,0.0636
5.4880,0.0622
5.4890,0.0609
5.4900,0.0596
5.4910,0.0584
5.4920,0.0573
5.4930,0.0562
5.4940,0.0552
5.4950,0.0542
5.4960,0.0533
5.4970,0.0524
5.4980,0.0515
5.4990,0.0507
5.5000,0.0500
