# wavelength (microns), transmission, emissivity
2.0000,0.0000,0.0000
2.0010,0.0000,0.0000
2.0020,0.0000,0.0000
2.0030,0.0000,0.0000
2.0040,0.0000,0.0000
2.0050,0.0000,0.0000
2.0060,0.0000,0.0000
2.0070,0.0000,0.0000
2.0080,0.0000,0.0000
2.0090,0.0000,0.0000
2.0100,0.0000,0.0000
2.0110,0.0000,0.0000
2.0120,0.0000,0.0000
2.0130,0.0000,0.0000
2.0140,0.0000,0.0000
2.0150,0.0000,0.0000
2.0160,0.0000,0.0000
2.0170,0.0000,0.0000
2.0180,0.0000,0.0000
2.0190,0.0000,0.0000
2.0200,0.0000,0.0000
2.0210,0.0000,0.0000
2.0220,0.0000,0.0000
2.0230,0.0000,0.0000
2.0240,0.0000,0.0000
2.0250,0.0000,0.0000
2.0260,0.0000,0.0000
2.0270,0.0000,0.0000
2.0280,0.0000,0.0000
2.0290,0.0000,0.0000
2.0300,0.0000,0.0000
2.0310,0.0000,0.0000
2.0320,0.0000,0.0000
2.0330,0.0000,0.0000
2.0340,0.0000,0.0000
2.0350,0.0000,0.0000
2.0360,0.0000,0.0000
2.0370,0.0000,0.0000
2.0380,0.0000,0.0000
2.0390,0.0000,0.0000
2.0400,0.0000,0.0000
2.0410,0.0000,0.0000
2.0420,0.0000,0.0000
2.0430,0.0000,0.0000
2.0440,0.0000,0.0000
2.0450,0.0000,0.0000
2.0460,0.0000,0.0000
2.0470,0.0000,0.0000
2.0480,0.0000,0.0000
2.0490,0.0000,0.0000
2.0500,0.0000,0.0000
2.0510,0.0000,0.0000
2.0520,0.0000,0.0000
2.0530,0.0000,0.0000
2.0540,0.0000,0.0000
2.0550,0.0000,0.0000
2.0560,0.0000,0.0000
2.0570,0.0000,0.0000
2.0580,0.0000,0.0000
2.0590,0.0000,0.0000
2.0600,0.0000,0.0000
2.0610,0.0000,0.0000
2.0620,0.0000,0.0000
2.0630,0.0000,0.0000
2.0640,0.0000,0.0000
2.0650,0.0000,0.0000
2.0660,0.0000,0.0000
2.0670,0.0000,0.0000
2.0680,0.0000,0.0000
2.0690,0.0000,0.0000
2.0700,0.0000,0.0000
2.0710,0.0000,0.0000
2.0720,0.0000,0.0000
2.0730,0.0000,0.0000
2.0740,0.0000,0.0000
2.0750,0.0000,0.0000
2.0760,0.0000,0.0000
2.0770,0.0000,0.0000
2.0780,0.0000,0.0000
2.0790,0.0000,0.0000
2.0800,0.0000,0.0000
2.0810,0.0000,0.0000
2.0820,0.0000,0.0000
2.0830,0.0000,0.0000
2.0840,0.0000,0.0000
2.0850,0.0000,0.0000
2.0860,0.0000,0.0000
2.0870,0.0000,0.0000
2.0880,0.0000,0.0000
2.0890,0.0000,0.0000
2.0900,0.0000,0.0000
2.0910,0.0000,0.0000
2.0920,0.0000,0.0000
2.0930,0.0000,0.0000
2.0940,0.0000,0.0000
2.0950,0.0000,0.0000
2.0960,0.0000,0.0000
2.0970,0.0000,0.0000
2.0980,0.0000,0.0000
2.0990,0.0000,0.0000
2.1000,0.0000,0.0000
2.1010,0.0001,0.0000
2.1020,0.0001,0.0000
2.1030,0.0001,0.0000
2.1040,0.0001,0.0000
2.1050,0.0001,0.0000
2.1060,0.0001,0.0000
2.1070,0.0001,0.0000
2.1080,0.0001,0.0000
2.1090,0.0001,0.0000
2.1100,0.0001,0.0000
2.1110,0.0001,0.0000
2.1120,0.0001,0.0000
2.1130,0.0001,0.0000
2.1140,0.0001,0.0000
2.1150,0.0001,0.0000
2.1160,0.0001,0.0000
2.1170,0.0001,0.0000
2.1180,0.0001,0.0000
2.1190,0.0001,0.0000
2.1200,0.0001,0.0000
2.1210,0.0001,0.0000
2.1220,0.0001,0.0000
2.1230,0.0001,0.0000
2.1240,0.0001,0.0000
2.1250,0.0001,0.0000
2.1260,0.0001,0.0000
2.1270,0.0001,0.0000
2.1280,0.0001,0.0000
2.1290,0.0001,0.0000
2.1300,0.0001,0.0000
2.1310,0.0001,0.0000
2.1320,0.0001,0.0000
2.1330,0.0001,0.0000
2.1340,0.0001,0.0000
2.1350,0.0001,0.0000
2.1360,0.0001,0.0000
2.1370,0.0001,0.0000
2.1380,0.0001,0.0000
2.1390,0.0001,0.0000
2.1400,0.0001,0.0000
2.1410,0.0001,0.0000
2.1420,0.0001,0.0000
2.1430,0.0001,0.0000
2.1440,0.0001,0.0000
2.1450,0.0001,0.0000
2.1460,0.0001,0.0000
2.1470,0.0001,0.0000
2.1480,0.0001,0.0000
2.1490,0.0001,0.0000
2.1500,0.0001,0.0000
2.1510,0.0001,0.0000
2.1520,0.0001,0.0000
2.1530,0.0001,0.0000
2.1540,0.0001,0.0000
2.1550,0.0001,0.0000
2.1560,0.0001,0.0000
2.1570,0.0001,0.0000
2.1580,0.0001,0.0000
2.1590,0.0001,0.0000
2.1600,0.0001,0.0000
2.1610,0.0001,0.0000
2.1620,0.0001,0.0000
2.1630,0.0001,0.0000
2.1640,0.0001,0.0000
2.1650,0.0001,0.0000
2.1660,0.0001,0.0000
2.1670,0.0001,0.0000
2.1680,0.0001,0.0000
2.1690,0.0001,0.0000
2.1700,0.0001,0.0000
2.1710,0.0001,0.0000
2.1720,0.0001,0.0000
2.1730,0.0001,0.0000
2.1740,0.0001,0.0000
2.1750,0.0001,0.0000
2.1760,0.0001,0.0000
2.1770,0.0001,0.0000
2.1780,0.0001,0.0000
2.1790,0.0001,0.0000
2.1800,0.0001,0.0000
2.1810,0.0001,0.0000
2.1820,0.0001,0.0000
2.1830,0.0001,0.0000
2.1840,0.0001,0.0000
2.1850,0.0001,0.0000
2.1860,0.0001,0.0000
2.1870,0.0001,0.0000
2.1880,0.0001,0.0000
2.1890,0.0001,0.0000
2.1900,0.0001,0.0000
2.1910,0.0001,0.0000
2.1920,0.0001,0.0000
2.1930,0.0001,0.0000
2.1940,0.0001,0.0000
2.1950,0.0001,0.0000
2.1960,0.0001,0.0000
2.1970,0.0001,0.0000
2.1980,0.0001,0.0000
2.1990,0.0001,0.0000
2.2000,0.0001,0.0000
2.2010,0.0001,0.0000
2.2020,0.0001,0.0000
2.2030,0.0001,0.0000
2.2040,0.0002,0.0000
2.2050,0.0002,0.0000
2.2060,0.0002,0.0000
2.2070,0.0002,0.0000
2.2080,0.0002,0.0000
2.2090,0.0002,0.0000
2.2100,0.0002,0.0000
2.2110,0.0002,0.0000
2.2120,0.0002,0.0000
2.2130,0.0003,0.0000
2.2140,0.0003,0.0000
2.2150,0.0003,0.0000
2.2160,0.0003,0.0000
2.2170,0.0004,0.0000
2.2180,0.0004,0.0000
2.2190,0.0005,0.0000
2.2200,0.0005,0.0000
2.2210,0.0006,0.0000
2.2220,0.0006,0.0000
2.2230,0.0007,0.0000
2.2240,0.0008,0.0000
2.2250,0.0008,0.0000
2.2260,0.0009,0.0000
2.2270,0.0009,0.0000
2.2280,0.0010,0.0000
2.2290,0.0010,0.0000
2.2300,0.0010,0.0000
2.2310,0.0010,0.0000
2.2320,0.0011,0.0000
2.2330,0.0011,0.0000
2.2340,0.0011,0.0000
2.2350,0.0011,0.0000
2.2360,0.0011,0.0000
2.2370,0.0012,0.0000
2.2380,0.0012,0.0000
2.2390,0.0013,0.0000
2.2400,0.0013,0.0000
2.2410,0.0014,0.0000
2.2420,0.0015,0.0000
2.2430,0.0016,0.0000
2.2440,0.0017,0.0000
2.2450,0.0018,0.0000
2.2460,0.0020,0.0000
2.2470,0.0021,0.0000
2.2480,0.0023,0.0000
2.2490,0.0025,0.0000
2.2500,0.0027,0.0000
2.2510,0.0029,0.0000
2.2520,0.0032,0.0000
2.2530,0.0034,0.0000
2.2540,0.0037,0.0000
2.2550,0.0040,0.0000
2.2560,0.0044,0.0000
2.2570,0.0047,0.0000
2.2580,0.0051,0.0000
2.2590,0.0054,0.0000
2.2600,0.0058,0.0000
2.2610,0.0062,0.0000
2.2620,0.0066,0.0000
2.2630,0.0070,0.0000
2.2640,0.0074,0.0000
2.2650,0.0078,0.0000
2.2660,0.0081,0.0000
2.2670,0.0085,0.0000
2.2680,0.0088,0.0000
2.2690,0.0091,0.0000
2.2700,0.0094,0.0000
2.2710,0.0097,0.0000
2.2720,0.0100,0.0000
2.2730,0.0103,0.0000
2.2740,0.0105,0.0000
2.2750,0.0107,0.0000
2.2760,0.0110,0.0000
2.2770,0.0112,0.0000
2.2780,0.0114,0.0000
2.2790,0.0117,0.0000
2.2800,0.0119,0.0000
2.2810,0.0122,0.0000
2.2820,0.0125,0.0000
2.2830,0.0128,0.0000
2.2840,0.0131,0.0000
2.2850,0.0135,0.0000
2.2860,0.0139,0.0000
2.2870,0.0143,0.0000
2.2880,0.0147,0.0000
2.2890,0.0152,0.0000
2.2900,0.0158,0.0000
2.2910,0.0164,0.0000
2.2920,0.0170,0.0000
2.2930,0.0178,0.0000
2.2940,0.0185,0.0000
2.2950,0.0194,0.0000
2.2960,0.0204,0.0000
2.2970,0.0214,0.0000
2.2980,0.0226,0.0000
2.2990,0.0239,0.0000
2.3000,0.0254,0.0000
2.3010,0.0270,0.0000
2.3020,0.0287,0.0000
2.3030,0.0307,0.0000
2.3040,0.0329,0.0000
2.3050,0.0354,0.0000
2.3060,0.0381,0.0000
2.3070,0.0412,0.0000
2.3080,0.0447,0.0000
2.3090,0.0487,0.0000
2.3100,0.0532,0.0000
2.3110,0.0582,0.0000
2.3120,0.0640,0.0000
2.3130,0.0706,0.0000
2.3140,0.0780,0.0000
2.3150,0.0865,0.0000
2.3160,0.0961,0.0000
2.3170,0.1070,0.0000
2.3180,0.1193,0.0000
2.3190,0.1331,0.0000
2.3200,0.1484,0.0000
2.3210,0.1653,0.0000
2.3220,0.1836,0.0000
2.3230,0.2032,0.0000
2.3240,0.2238,0.0000
2.3250,0.2454,0.0000
2.3260,0.2676,0.0000
2.3270,0.2903,0.0000
2.3280,0.3134,0.0000
2.3290,0.3370,0.0000
2.3300,0.3610,0.0000
2.3310,0.3853,0.0000
2.3320,0.4099,0.0000
2.3330,0.4346,0.0000
2.3340,0.4590,0.0000
2.3350,0.4827,0.0000
2.3360,0.5054,0.0000
2.3370,0.5264,0.0000
2.3380,0.5456,0.0000
2.3390,0.5624,0.0000
2.3400,0.5768,0.0000
2.3410,0.5887,0.0000
2.3420,0.5983,0.0000
2.3430,0.6057,0.0000
2.3440,0.6113,0.0000
2.3450,0.6154,0.0000
2.3460,0.6185,0.0000
2.3470,0.6210,0.0000
2.3480,0.6232,0.0000
2.3490,0.6255,0.0000
2.3500,0.6281,0.0000
2.3510,0.6314,0.0000
2.3520,0.6355,0.0000
2.3530,0.6406,0.0000
2.3540,0.6469,0.0000
2.3550,0.6544,0.0000
2.3560,0.6632,0.0000
2.3570,0.6734,0.0000
2.3580,0.6850,0.0000
2.3590,0.6978,0.0000
2.3600,0.7119,0.0000
2.3610,0.7270,0.0000
2.3620,0.7431,0.0000
2.3630,0.7600,0.0000
2.3640,0.7773,0.0000
2.3650,0.7948,0.0000
2.3660,0.8122,0.0000
2.3670,0.8292,0.0000
2.3680,0.8455,0.0000
2.3690,0.8608,0.0000
2.3700,0.8748,0.0000
2.3710,0.8875,0.0000
2.3720,0.8985,0.0000
2.3730,0.9080,0.0000
2.3740,0.9159,0.0000
2.3750,0.9191,0.0000
2.3760,0.9220,0.0000
2.3770,0.9243,0.0000
2.3780,0.9260,0.0000
2.3790,0.9272,0.0000
2.3800,0.9280,0.0000
2.3810,0.9285,0.0000
2.3820,0.9287,0.0000
2.3830,0.9287,0.0000
2.3840,0.9285,0.0000
2.3850,0.9281,0.0000
2.3860,0.9275,0.0000
2.3870,0.9270,0.0000
2.3880,0.9265,0.0000
2.3890,0.9260,0.0000
2.3900,0.9256,0.0000
2.3910,0.9252,0.0000
2.3920,0.9250,0.0000
2.3930,0.9248,0.0000
2.3940,0.9247,0.0000
2.3950,0.9247,0.0000
2.3960,0.9248,0.0000
2.3970,0.9250,0.0000
2.3980,0.9253,0.0000
2.3990,0.9257,0.0000
2.4000,0.9262,0.0000
2.4010,0.9268,0.0000
2.4020,0.9274,0.0000
2.4030,0.9282,0.0000
2.4040,0.9290,0.0000
2.4050,0.9298,0.0000
2.4060,0.9307,0.0000
2.4070,0.9317,0.0000
2.4080,0.9327,0.0000
2.4090,0.9337,0.0000
2.4100,0.9346,0.0000
2.4110,0.9356,0.0000
2.4120,0.9366,0.0000
2.4130,0.9376,0.0000
2.4140,0.9385,0.0000
2.4150,0.9394,0.0000
2.4160,0.9402,0.0000
2.4170,0.9410,0.0000
2.4180,0.9417,0.0000
2.4190,0.9423,0.0000
2.4200,0.9429,0.0000
2.4210,0.9434,0.0000
2.4220,0.9439,0.0000
2.4230,0.9443,0.0000
2.4240,0.9447,0.0000
2.4250,0.9450,0.0000
2.4260,0.9452,0.0000
2.4270,0.9454,0.0000
2.4280,0.9456,0.0000
2.4290,0.9457,0.0000
2.4300,0.9459,0.0000
2.4310,0.9459,0.0000
2.4320,0.9460,0.0000
2.4330,0.9461,0.0000
2.4340,0.9461,0.0000
2.4350,0.9462,0.0000
2.4360,0.9462,0.0000
2.4370,0.9463,0.0000
2.4380,0.9464,0.0000
2.4390,0.9465,0.0000
2.4400,0.9466,0.0000
2.4410,0.9467,0.0000
2.4420,0.9469,0.0000
2.4430,0.9471,0.0000
2.4440,0.9473,0.0000
2.4450,0.9475,0.0000
2.4460,0.9477,0.0000
2.4470,0.9480,0.0000
2.4480,0.9483,0.0000
2.4490,0.9486,0.0000
2.4500,0.9485,0.0000
2.4510,0.9484,0.0000
2.4520,0.9482,0.0000
2.4530,0.9481,0.0000
2.4540,0.9481,0.0000
2.4550,0.9480,0.0000
2.4560,0.9479,0.0000
2.4570,0.9479,0.0000
2.4580,0.9479,0.0000
2.4590,0.9478,0.0000
2.4600,0.9478,0.0000
2.4610,0.9478,0.0000
2.4620,0.9478,0.0000
2.4630,0.9478,0.0000
2.4640,0.9478,0.0000
2.4650,0.9477,0.0000
2.4660,0.9477,0.0000
2.4670,0.9477,0.0000
2.4680,0.9476,0.0000
2.4690,0.9478,0.0000
2.4700,0.9478,0.0000
2.4710,0.9479,0.0000
2.4720,0.9479,0.0000
2.4730,0.9480,0.0000
2.4740,0.9479,0.0000
2.4750,0.9480,0.0000
2.4760,0.9479,0.0000
2.4770,0.9480,0.0000
2.4780,0.9478,0.0000
2.4790,0.9478,0.0000
2.4800,0.9479,0.0000
2.4810,0.9477,0.0000
2.4820,0.9477,0.0000
2.4830,0.9477,0.0000
2.4840,0.9477,0.0000
2.4850,0.9474,0.0000
2.4860,0.9474,0.0000
2.4870,0.9473,0.0000
2.4880,0.9473,0.0000
2.4890,0.9469,0.0000
2.4900,0.9469,0.0000
2.4910,0.9468,0.0000
2.4920,0.9467,0.0000
2.4930,0.9465,0.0000
2.4940,0.9464,0.0000
2.4950,0.9463,0.0000
2.4960,0.9461,0.0000
2.4970,0.9460,0.0000
2.4980,0.9458,0.0000
2.4990,0.9457,0.0000
2.5000,0.9455,0.0000
2.5010,0.9453,0.0000
2.5020,0.9452,0.0000
2.5030,0.9450,0.0000
2.5040,0.9448,0.0000
2.5050,0.9446,0.0000
2.5060,0.9444,0.0000
2.5070,0.9442,0.0000
2.5080,0.9440,0.0000
2.5090,0.9438,0.0000
2.5100,0.9435,0.0000
2.5110,0.9433,0.0000
2.5120,0.9431,0.0000
2.5130,0.9428,0.0000
2.5140,0.9426,0.0000
2.5150,0.9423,0.0000
2.5160,0.9421,0.0000
2.5170,0.9418,0.0000
2.5180,0.9415,0.0000
2.5190,0.9413,0.0000
2.5200,0.9410,0.0000
2.5210,0.9407,0.0000
2.5220,0.9404,0.0000
2.5230,0.9402,0.0000
2.5240,0.9399,0.0000
2.5250,0.9396,0.0000
2.5260,0.9393,0.0000
2.5270,0.9390,0.0000
2.5280,0.9388,0.0000
2.5290,0.9385,0.0000
2.5300,0.9382,0.0000
2.5310,0.9379,0.0000
2.5320,0.9377,0.0000
2.5330,0.9374,0.0000
2.5340,0.9372,0.0000
2.5350,0.9369,0.0000
2.5360,0.9367,0.0000
2.5370,0.9364,0.0000
2.5380,0.9362,0.0000
2.5390,0.9360,0.0000
2.5400,0.9358,0.0000
2.5410,0.9355,0.0000
2.5420,0.9354,0.0000
2.5430,0.9352,0.0000
2.5440,0.9350,0.0000
2.5450,0.9348,0.0000
2.5460,0.9347,0.0000
2.5470,0.9345,0.0000
2.5480,0.9344,0.0000
2.5490,0.9342,0.0000
2.5500,0.9341,0.0000
2.5510,0.9341,0.0000
2.5520,0.9340,0.0000
2.5530,0.9340,0.0000
2.5540,0.9339,0.0000
2.5550,0.9339,0.0000
2.5560,0.9339,0.0000
2.5570,0.9339,0.0000
2.5580,0.9339,0.0000
2.5590,0.9339,0.0000
2.5600,0.9339,0.0000
2.5610,0.9339,0.0000
2.5620,0.9339,0.0000
2.5630,0.9340,0.0000
2.5640,0.9340,0.0000
2.5650,0.9341,0.0000
2.5660,0.9341,0.0000
2.5670,0.9342,0.0000
2.5680,0.9343,0.0000
2.5690,0.9344,0.0000
2.5700,0.9344,0.0000
2.5710,0.9345,0.0000
2.5720,0.9346,0.0000
2.5730,0.9347,0.0000
2.5740,0.9348,0.0000
2.5750,0.9349,0.0000
2.5760,0.9350,0.0000
2.5770,0.9351,0.0000
2.5780,0.9353,0.0000
2.5790,0.9354,0.0000
2.5800,0.9355,0.0000
2.5810,0.9356,0.0000
2.5820,0.9358,0.0000
2.5830,0.9359,0.0000
2.5840,0.9361,0.0000
2.5850,0.9363,0.0000
2.5860,0.9365,0.0000
2.5870,0.9367,0.0000
2.5880,0.9369,0.0000
2.5890,0.9371,0.0000
2.5900,0.9373,0.0000
2.5910,0.9376,0.0000
2.5920,0.9378,0.0000
2.5930,0.9380,0.0000
2.5940,0.9382,0.0000
2.5950,0.9385,0.0000
2.5960,0.9387,0.0000
2.5970,0.9389,0.0000
2.5980,0.9392,0.0000
2.5990,0.9394,0.0000
2.6000,0.9397,0.0000
2.6010,0.9394,0.0000
2.6020,0.9389,0.0000
2.6030,0.9385,0.0000
2.6040,0.9381,0.0000
2.6050,0.9377,0.0000
2.6060,0.9373,0.0000
2.6070,0.9369,0.0000
2.6080,0.9365,0.0000
2.6090,0.9361,0.0000
2.6100,0.9357,0.0000
2.6110,0.9353,0.0000
2.6120,0.9350,0.0000
2.6130,0.9346,0.0000
2.6140,0.9334,0.0000
2.6150,0.9335,0.0000
2.6160,0.9336,0.0000
2.6170,0.9338,0.0000
2.6180,0.9339,0.0000
2.6190,0.9340,0.0000
2.6200,0.9342,0.0000
2.6210,0.9343,0.0000
2.6220,0.9344,0.0000
2.6230,0.9346,0.0000
2.6240,0.9347,0.0000
2.6250,0.9348,0.0000
2.6260,0.9349,0.0000
2.6270,0.9350,0.0000
2.6280,0.9351,0.0000
2.6290,0.9352,0.0000
2.6300,0.9353,0.0000
2.6310,0.9354,0.0000
2.6320,0.9355,0.0000
2.6330,0.9356,0.0000
2.6340,0.9356,0.0000
2.6350,0.9357,0.0000
2.6360,0.9357,0.0000
2.6370,0.9358,0.0000
2.6380,0.9358,0.0000
2.6390,0.9358,0.0000
2.6400,0.9358,0.0000
2.6410,0.9358,0.0000
2.6420,0.9358,0.0000
2.6430,0.9357,0.0000
2.6440,0.9357,0.0000
2.6450,0.9356,0.0000
2.6460,0.9355,0.0000
2.6470,0.9354,0.0000
2.6480,0.9353,0.0000
2.6490,0.9352,0.0000
2.6500,0.9351,0.0000
2.6510,0.9339,0.0000
2.6520,0.9336,0.0000
2.6530,0.9333,0.0000
2.6540,0.9329,0.0000
2.6550,0.9326,0.0000
2.6560,0.9322,0.0000
2.6570,0.9318,0.0000
2.6580,0.9314,0.0000
2.6590,0.9310,0.0000
2.6600,0.9306,0.0000
2.6610,0.9302,0.0000
2.6620,0.9297,0.0000
2.6630,0.9293,0.0000
2.6640,0.9288,0.0000
2.6650,0.9284,0.0000
2.6660,0.9280,0.0000
2.6670,0.9275,0.0000
2.6680,0.9271,0.0000
2.6690,0.9267,0.0000
2.6700,0.9262,0.0000
2.6710,0.9258,0.0000
2.6720,0.9254,0.0000
2.6730,0.9250,0.0000
2.6740,0.9247,0.0000
2.6750,0.9243,0.0000
2.6760,0.9240,0.0000
2.6770,0.9237,0.0000
2.6780,0.9234,0.0000
2.6790,0.9231,0.0000
2.6800,0.9228,0.0000
2.6810,0.9226,0.0000
2.6820,0.9224,0.0000
2.6830,0.9222,0.0000
2.6840,0.9220,0.0000
2.6850,0.9219,0.0000
2.6860,0.9217,0.0000
2.6870,0.9216,0.0000
2.6880,0.9216,0.0000
2.6890,0.9215,0.0000
2.6900,0.9215,0.0000
2.6910,0.9215,0.0000
2.6920,0.9215,0.0000
2.6930,0.9215,0.0000
2.6940,0.9215,0.0000
2.6950,0.9216,0.0000
2.6960,0.9217,0.0000
2.6970,0.9218,0.0000
2.6980,0.9219,0.0000
2.6990,0.9220,0.0000
2.7000,0.9231,0.0000
2.7010,0.9234,0.0000
2.7020,0.9237,0.0000
2.7030,0.9240,0.0000
2.7040,0.9243,0.0000
2.7050,0.9247,0.0000
2.7060,0.9250,0.0000
2.7070,0.9253,0.0000
2.7080,0.9257,0.0000
2.7090,0.9260,0.0000
2.7100,0.9263,0.0000
2.7110,0.9266,0.0000
2.7120,0.9270,0.0000
2.7130,0.9273,0.0000
2.7140,0.9276,0.0000
2.7150,0.9279,0.0000
2.7160,0.9282,0.0000
2.7170,0.9285,0.0000
2.7180,0.9288,0.0000
2.7190,0.9291,0.0000
2.7200,0.9293,0.0000
2.7210,0.9296,0.0000
2.7220,0.9299,0.0000
2.7230,0.9301,0.0000
2.7240,0.9304,0.0000
2.7250,0.9306,0.0000
2.7260,0.9308,0.0000
2.7270,0.9310,0.0000
2.7280,0.9312,0.0000
2.7290,0.9314,0.0000
2.7300,0.9316,0.0000
2.7310,0.9318,0.0000
2.7320,0.9319,0.0000
2.7330,0.9321,0.0000
2.7340,0.9322,0.0000
2.7350,0.9324,0.0000
2.7360,0.9325,0.0000
2.7370,0.9326,0.0000
2.7380,0.9327,0.0000
2.7390,0.9328,0.0000
2.7400,0.9329,0.0000
2.7410,0.9330,0.0000
2.7420,0.9331,0.0000
2.7430,0.9332,0.0000
2.7440,0.9333,0.0000
2.7450,0.9334,0.0000
2.7460,0.9334,0.0000
2.7470,0.9335,0.0000
2.7480,0.9336,0.0000
2.7490,0.9337,0.0000
2.7500,0.9337,0.0000
2.7510,0.9332,0.0000
2.7520,0.9326,0.0000
2.7530,0.9320,0.0000
2.7540,0.9315,0.0000
2.7550,0.9309,0.0000
2.7560,0.9304,0.0000
2.7570,0.9298,0.0000
2.7580,0.9293,0.0000
2.7590,0.9287,0.0000
2.7600,0.9282,0.0000
2.7610,0.9277,0.0000
2.7620,0.9272,0.0000
2.7630,0.9273,0.0000
2.7640,0.9273,0.0000
2.7650,0.9274,0.0000
2.7660,0.9274,0.0000
2.7670,0.9275,0.0000
2.7680,0.9276,0.0000
2.7690,0.9277,0.0000
2.7700,0.9278,0.0000
2.7710,0.9279,0.0000
2.7720,0.9281,0.0000
2.7730,0.9282,0.0000
2.7740,0.9284,0.0000
2.7750,0.9286,0.0000
2.7760,0.9289,0.0000
2.7770,0.9291,0.0000
2.7780,0.9294,0.0000
2.7790,0.9297,0.0000
2.7800,0.9300,0.0000
2.7810,0.9303,0.0000
2.7820,0.9306,0.0000
2.7830,0.9309,0.0000
2.7840,0.9313,0.0000
2.7850,0.9316,0.0000
2.7860,0.9320,0.0000
2.7870,0.9324,0.0000
2.7880,0.9328,0.0000
2.7890,0.9331,0.0000
2.7900,0.9335,0.0000
2.7910,0.9339,0.0000
2.7920,0.9343,0.0000
2.7930,0.9347,0.0000
2.7940,0.9351,0.0000
2.7950,0.9355,0.0000
2.7960,0.9359,0.0000
2.7970,0.9363,0.0000
2.7980,0.9367,0.0000
2.7990,0.9370,0.0000
2.8000,0.9374,0.0000
2.8010,0.9378,0.0000
2.8020,0.9381,0.0000
2.8030,0.9384,0.0000
2.8040,0.9387,0.0000
2.8050,0.9390,0.0000
2.8060,0.9393,0.0000
2.8070,0.9396,0.0000
2.8080,0.9398,0.0000
2.8090,0.9401,0.0000
2.8100,0.9403,0.0000
2.8110,0.9405,0.0000
2.8120,0.9406,0.0000
2.8130,0.9408,0.0000
2.8140,0.9409,0.0000
2.8150,0.9410,0.0000
2.8160,0.9411,0.0000
2.8170,0.9412,0.0000
2.8180,0.9412,0.0000
2.8190,0.9412,0.0000
2.8200,0.9412,0.0000
2.8210,0.9412,0.0000
2.8220,0.9412,0.0000
2.8230,0.9411,0.0000
2.8240,0.9410,0.0000
2.8250,0.9409,0.0000
2.8260,0.9408,0.0000
2.8270,0.9407,0.0000
2.8280,0.9406,0.0000
2.8290,0.9404,0.0000
2.8300,0.9402,0.0000
2.8310,0.9400,0.0000
2.8320,0.9398,0.0000
2.8330,0.9396,0.0000
2.8340,0.9394,0.0000
2.8350,0.9392,0.0000
2.8360,0.9390,0.0000
2.8370,0.9388,0.0000
2.8380,0.9385,0.0000
2.8390,0.9383,0.0000
2.8400,0.9381,0.0000
2.8410,0.9378,0.0000
2.8420,0.9376,0.0000
2.8430,0.9374,0.0000
2.8440,0.9372,0.0000
2.8450,0.9369,0.0000
2.8460,0.9367,0.0000
2.8470,0.9365,0.0000
2.8480,0.9363,0.0000
2.8490,0.9361,0.0000
2.8500,0.9360,0.0000
2.8510,0.9358,0.0000
2.8520,0.9357,0.0000
2.8530,0.9355,0.0000
2.8540,0.9354,0.0000
2.8550,0.9353,0.0000
2.8560,0.9352,0.0000
2.8570,0.9351,0.0000
2.8580,0.9351,0.0000
2.8590,0.9350,0.0000
2.8600,0.9350,0.0000
2.8610,0.9349,0.0000
2.8620,0.9349,0.0000
2.8630,0.9349,0.0000
2.8640,0.9350,0.0000
2.8650,0.9350,0.0000
2.8660,0.9350,0.0000
2.8670,0.9351,0.0000
2.8680,0.9352,0.0000
2.8690,0.9353,0.0000
2.8700,0.9354,0.0000
2.8710,0.9355,0.0000
2.8720,0.9356,0.0000
2.8730,0.9357,0.0000
2.8740,0.9359,0.0000
2.8750,0.9360,0.0000
2.8760,0.9361,0.0000
2.8770,0.9363,0.0000
2.8780,0.9365,0.0000
2.8790,0.9366,0.0000
2.8800,0.9368,0.0000
2.8810,0.9369,0.0000
2.8820,0.9371,0.0000
2.8830,0.9373,0.0000
2.8840,0.9374,0.0000
2.8850,0.9376,0.0000
2.8860,0.9377,0.0000
2.8870,0.9379,0.0000
2.8880,0.9380,0.0000
2.8890,0.9381,0.0000
2.8900,0.9382,0.0000
2.8910,0.9383,0.0000
2.8920,0.9384,0.0000
2.8930,0.9385,0.0000
2.8940,0.9386,0.0000
2.8950,0.9386,0.0000
2.8960,0.9387,0.0000
2.8970,0.9387,0.0000
2.8980,0.9387,0.0000
2.8990,0.9387,0.0000
2.9000,0.9387,0.0000
2.9010,0.9386,0.0000
2.9020,0.9385,0.0000
2.9030,0.9385,0.0000
2.9040,0.9383,0.0000
2.9050,0.9382,0.0000
2.9060,0.9381,0.0000
2.9070,0.9379,0.0000
2.9080,0.9377,0.0000
2.9090,0.9375,0.0000
2.9100,0.9373,0.0000
2.9110,0.9370,0.0000
2.9120,0.9368,0.0000
2.9130,0.9365,0.0000
2.9140,0.9362,0.0000
2.9150,0.9358,0.0000
2.9160,0.9355,0.0000
2.9170,0.9351,0.0000
2.9180,0.9348,0.0000
2.9190,0.9344,0.0000
2.9200,0.9340,0.0000
2.9210,0.9336,0.0000
2.9220,0.9331,0.0000
2.9230,0.9327,0.0000
2.9240,0.9322,0.0000
2.9250,0.9318,0.0000
2.9260,0.9313,0.0000
2.9270,0.9308,0.0000
2.9280,0.9304,0.0000
2.9290,0.9299,0.0000
2.9300,0.9294,0.0000
2.9310,0.9289,0.0000
2.9320,0.9285,0.0000
2.9330,0.9280,0.0000
2.9340,0.9275,0.0000
2.9350,0.9270,0.0000
2.9360,0.9266,0.0000
2.9370,0.9261,0.0000
2.9380,0.9257,0.0000
2.9390,0.9252,0.0000
2.9400,0.9248,0.0000
2.9410,0.9244,0.0000
2.9420,0.9240,0.0000
2.9430,0.9236,0.0000
2.9440,0.9232,0.0000
2.9450,0.9228,0.0000
2.9460,0.9225,0.0000
2.9470,0.9222,0.0000
2.9480,0.9219,0.0000
2.9490,0.9216,0.0000
2.9500,0.9213,0.0000
2.9510,0.9211,0.0000
2.9520,0.9209,0.0000
2.9530,0.9207,0.0000
2.9540,0.9205,0.0000
2.9550,0.9204,0.0000
2.9560,0.9202,0.0000
2.9570,0.9201,0.0000
2.9580,0.9201,0.0000
2.9590,0.9200,0.0000
2.9600,0.9200,0.0000
2.9610,0.9200,0.0000
2.9620,0.9200,0.0000
2.9630,0.9201,0.0000
2.9640,0.9201,0.0000
2.9650,0.9202,0.0000
2.9660,0.9204,0.0000
2.9670,0.9205,0.0000
2.9680,0.9207,0.0000
2.9690,0.9209,0.0000
2.9700,0.9211,0.0000
2.9710,0.9213,0.0000
2.9720,0.9216,0.0000
2.9730,0.9218,0.0000
2.9740,0.9221,0.0000
2.9750,0.9225,0.0000
2.9760,0.9228,0.0000
2.9770,0.9231,0.0000
2.9780,0.9235,0.0000
2.9790,0.9239,0.0000
2.9800,0.9243,0.0000
2.9810,0.9247,0.0000
2.9820,0.9251,0.0000
2.9830,0.9256,0.0000
2.9840,0.9260,0.0000
2.9850,0.9265,0.0000
2.9860,0.9269,0.0000
2.9870,0.9274,0.0000
2.9880,0.9279,0.0000
2.9890,0.9283,0.0000
2.9900,0.9288,0.0000
2.9910,0.9293,0.0000
2.9920,0.9298,0.0000
2.9930,0.9303,0.0000
2.9940,0.9308,0.0000
2.9950,0.9313,0.0000
2.9960,0.9317,0.0000
2.9970,0.9322,0.0000
2.9980,0.9327,0.0000
2.9990,0.9331,0.0000
3.0000,0.9336,0.0000
3.0010,0.9341,0.0000
3.0020,0.9345,0.0000
3.0030,0.9350,0.0000
3.0040,0.9354,0.0000
3.0050,0.9358,0.0000
3.0060,0.9362,0.0000
3.0070,0.9366,0.0000
3.0080,0.9370,0.0000
3.0090,0.9373,0.0000
3.0100,0.9377,0.0000
3.0110,0.9380,0.0000
3.0120,0.9383,0.0000
3.0130,0.9386,0.0000
3.0140,0.9389,0.0000
3.0150,0.9391,0.0000
3.0160,0.9394,0.0000
3.0170,0.9396,0.0000
3.0180,0.9398,0.0000
3.0190,0.9399,0.0000
3.0200,0.9401,0.0000
3.0210,0.9402,0.0000
3.0220,0.9403,0.0000
3.0230,0.9404,0.0000
3.0240,0.9405,0.0000
3.0250,0.9405,0.0000
3.0260,0.9405,0.0000
3.0270,0.9405,0.0000
3.0280,0.9405,0.0000
3.0290,0.9405,0.0000
3.0300,0.9405,0.0000
3.0310,0.9404,0.0000
3.0320,0.9403,0.0000
3.0330,0.9402,0.0000
3.0340,0.9401,0.0000
3.0350,0.9400,0.0000
3.0360,0.9398,0.0000
3.0370,0.9397,0.0000
3.0380,0.9395,0.0000
3.0390,0.9393,0.0000
3.0400,0.9392,0.0000
3.0410,0.9390,0.0000
3.0420,0.9387,0.0000
3.0430,0.9385,0.0000
3.0440,0.9383,0.0000
3.0450,0.9381,0.0000
3.0460,0.9378,0.0000
3.0470,0.9376,0.0000
3.0480,0.9374,0.0000
3.0490,0.9371,0.0000
3.0500,0.9369,0.0000
3.0510,0.9366,0.0000
3.0520,0.9364,0.0000
3.0530,0.9362,0.0000
3.0540,0.9359,0.0000
3.0550,0.9357,0.0000
3.0560,0.9355,0.0000
3.0570,0.9352,0.0000
3.0580,0.9350,0.0000
3.0590,0.9348,0.0000
3.0600,0.9346,0.0000
3.0610,0.9344,0.0000
3.0620,0.9342,0.0000
3.0630,0.9341,0.0000
3.0640,0.9339,0.0000
3.0650,0.9337,0.0000
3.0660,0.9336,0.0000
3.0670,0.9335,0.0000
3.0680,0.9333,0.0000
3.0690,0.9332,0.0000
3.0700,0.9331,0.0000
3.0710,0.9331,0.0000
3.0720,0.9330,0.0000
3.0730,0.9329,0.0000
3.0740,0.9329,0.0000
3.0750,0.9329,0.0000
3.0760,0.9329,0.0000
3.0770,0.9329,0.0000
3.0780,0.9329,0.0000
3.0790,0.9329,0.0000
3.0800,0.9330,0.0000
3.0810,0.9331,0.0000
3.0820,0.9331,0.0000
3.0830,0.9332,0.0000
3.0840,0.9334,0.0000
3.0850,0.9335,0.0000
3.0860,0.9336,0.0000
3.0870,0.9338,0.0000
3.0880,0.9339,0.0000
3.0890,0.9341,0.0000
3.0900,0.9343,0.0000
3.0910,0.9345,0.0000
3.0920,0.9347,0.0000
3.0930,0.9349,0.0000
3.0940,0.9352,0.0000
3.0950,0.9354,0.0000
3.0960,0.9357,0.0000
3.0970,0.9360,0.0000
3.0980,0.9362,0.0000
3.0990,0.9365,0.0000
3.1000,0.9368,0.0000
3.1010,0.9371,0.0000
3.1020,0.9374,0.0000
3.1030,0.9377,0.0000
3.1040,0.9380,0.0000
3.1050,0.9384,0.0000
3.1060,0.9387,0.0000
3.1070,0.9390,0.0000
3.1080,0.9393,0.0000
3.1090,0.9397,0.0000
3.1100,0.9400,0.0000
3.1110,0.9404,0.0000
3.1120,0.9407,0.0000
3.1130,0.9410,0.0000
3.1140,0.9414,0.0000
3.1150,0.9417,0.0000
3.1160,0.9420,0.0000
3.1170,0.9424,0.0000
3.1180,0.9427,0.0000
3.1190,0.9430,0.0000
3.1200,0.9434,0.0000
3.1210,0.9437,0.0000
3.1220,0.9440,0.0000
3.1230,0.9443,0.0000
3.1240,0.9446,0.0000
3.1250,0.9449,0.0000
3.1260,0.9452,0.0000
3.1270,0.9455,0.0000
3.1280,0.9458,0.0000
3.1290,0.9460,0.0000
3.1300,0.9463,0.0000
3.1310,0.9466,0.0000
3.1320,0.9468,0.0000
3.1330,0.9470,0.0000
3.1340,0.9473,0.0000
3.1350,0.9475,0.0000
3.1360,0.9477,0.0000
3.1370,0.9479,0.0000
3.1380,0.9481,0.0000
3.1390,0.9483,0.0000
3.1400,0.9485,0.0000
3.1410,0.9487,0.0000
3.1420,0.9488,0.0000
3.1430,0.9490,0.0000
3.1440,0.9491,0.0000
3.1450,0.9493,0.0000
3.1460,0.9494,0.0000
3.1470,0.9495,0.0000
3.1480,0.9496,0.0000
3.1490,0.9498,0.0000
3.1500,0.9499,0.0000
3.1510,0.9499,0.0000
3.1520,0.9500,0.0000
3.1530,0.9501,0.0000
3.1540,0.9502,0.0000
3.1550,0.9502,0.0000
3.1560,0.9503,0.0000
3.1570,0.9503,0.0000
3.1580,0.9504,0.0000
3.1590,0.9504,0.0000
3.1600,0.9505,0.0000
3.1610,0.9505,0.0000
3.1620,0.9505,0.0000
3.1630,0.9505,0.0000
3.1640,0.9506,0.0000
3.1650,0.9506,0.0000
3.1660,0.9506,0.0000
3.1670,0.9506,0.0000
3.1680,0.9506,0.0000
3.1690,0.9506,0.0000
3.1700,0.9506,0.0000
3.1710,0.9506,0.0000
3.1720,0.9505,0.0000
3.1730,0.9505,0.0000
3.1740,0.9505,0.0000
3.1750,0.9505,0.0000
3.1760,0.9505,0.0000
3.1770,0.9505,0.0000
3.1780,0.9504,0.0000
3.1790,0.9504,0.0000
3.1800,0.9504,0.0000
3.1810,0.9504,0.0000
3.1820,0.9504,0.0000
3.1830,0.9503,0.0000
3.1840,0.9503,0.0000
3.1850,0.9503,0.0000
3.1860,0.9503,0.0000
3.1870,0.9502,0.0000
3.1880,0.9502,0.0000
3.1890,0.9502,0.0000
3.1900,0.9502,0.0000
3.1910,0.9501,0.0000
3.1920,0.9501,0.0000
3.1930,0.9501,0.0000
3.1940,0.9501,0.0000
3.1950,0.9500,0.0000
3.1960,0.9500,0.0000
3.1970,0.9500,0.0000
3.1980,0.9500,0.0000
3.1990,0.9500,0.0000
3.2000,0.9499,0.0000
3.2010,0.9499,0.0000
3.2020,0.9499,0.0000
3.2030,0.9499,0.0000
3.2040,0.9498,0.0000
3.2050,0.9498,0.0000
3.2060,0.9498,0.0000
3.2070,0.9497,0.0000
3.2080,0.9497,0.0000
3.2090,0.9497,0.0000
3.2100,0.9497,0.0000
3.2110,0.9496,0.0000
3.2120,0.9496,0.0000
3.2130,0.9495,0.0000
3.2140,0.9495,0.0000
3.2150,0.9495,0.0000
3.2160,0.9494,0.0000
3.2170,0.9494,0.0000
3.2180,0.9493,0.0000
3.2190,0.9493,0.0000
3.2200,0.9492,0.0000
3.2210,0.9491,0.0000
3.2220,0.9491,0.0000
3.2230,0.9490,0.0000
3.2240,0.9489,0.0000
3.2250,0.9489,0.0000
3.2260,0.9488,0.0000
3.2270,0.9487,0.0000
3.2280,0.9486,0.0000
3.2290,0.9485,0.0000
3.2300,0.9484,0.0000
3.2310,0.9483,0.0000
3.2320,0.9482,0.0000
3.2330,0.9481,0.0000
3.2340,0.9480,0.0000
3.2350,0.9479,0.0000
3.2360,0.9477,0.0000
3.2370,0.9476,0.0000
3.2380,0.9475,0.0000
3.2390,0.9474,0.0000
3.2400,0.9472,0.0000
3.2410,0.9471,0.0000
3.2420,0.9469,0.0000
3.2430,0.9468,0.0000
3.2440,0.9466,0.0000
3.2450,0.9465,0.0000
3.2460,0.9463,0.0000
3.2470,0.9461,0.0000
3.2480,0.9460,0.0000
3.2490,0.9458,0.0000
3.2500,0.9456,0.0000
3.2510,0.9455,0.0000
3.2520,0.9453,0.0000
3.2530,0.9451,0.0000
3.2540,0.9449,0.0000
3.2550,0.9447,0.0000
3.2560,0.9446,0.0000
3.2570,0.9444,0.0000
3.2580,0.9442,0.0000
3.2590,0.9440,0.0000
3.2600,0.9438,0.0000
3.2610,0.9436,0.0000
3.2620,0.9434,0.0000
3.2630,0.9433,0.0000
3.2640,0.9431,0.0000
3.2650,0.9429,0.0000
3.2660,0.9427,0.0000
3.2670,0.9425,0.0000
3.2680,0.9424,0.0000
3.2690,0.9422,0.0000
3.2700,0.9420,0.0000
3.2710,0.9419,0.0000
3.2720,0.9417,0.0000
3.2730,0.9416,0.0000
3.2740,0.9414,0.0000
3.2750,0.9413,0.0000
3.2760,0.9411,0.0000
3.2770,0.9410,0.0000
3.2780,0.9408,0.0000
3.2790,0.9407,0.0000
3.2800,0.9406,0.0000
3.2810,0.9405,0.0000
3.2820,0.9404,0.0000
3.2830,0.9403,0.0000
3.2840,0.9402,0.0000
3.2850,0.9401,0.0000
3.2860,0.9400,0.0000
3.2870,0.9400,0.0000
3.2880,0.9399,0.0000
3.2890,0.9398,0.0000
3.2900,0.9398,0.0000
3.2910,0.9398,0.0000
3.2920,0.9397,0.0000
3.2930,0.9397,0.0000
3.2940,0.9397,0.0000
3.2950,0.9397,0.0000
3.2960,0.9397,0.0000
3.2970,0.9397,0.0000
3.2980,0.9398,0.0000
3.2990,0.9398,0.0000
3.3000,0.9398,0.0000
3.3010,0.9399,0.0000
3.3020,0.9400,0.0000
3.3030,0.9400,0.0000
3.3040,0.9401,0.0000
3.3050,0.9402,0.0000
3.3060,0.9403,0.0000
3.3070,0.9404,0.0000
3.3080,0.9405,0.0000
3.3090,0.9407,0.0000
3.3100,0.9408,0.0000
3.3110,0.9410,0.0000
3.3120,0.9411,0.0000
3.3130,0.9413,0.0000
3.3140,0.9414,0.0000
3.3150,0.9416,0.0000
3.3160,0.9418,0.0000
3.3170,0.9420,0.0000
3.3180,0.9422,0.0000
3.3190,0.9424,0.0000
3.3200,0.9426,0.0000
3.3210,0.9429,0.0000
3.3220,0.9431,0.0000
3.3230,0.9433,0.0000
3.3240,0.9436,0.0000
3.3250,0.9438,0.0000
3.3260,0.9441,0.0000
3.3270,0.9444,0.0000
3.3280,0.9446,0.0000
3.3290,0.9449,0.0000
3.3300,0.9452,0.0000
3.3310,0.9455,0.0000
3.3320,0.9458,0.0000
3.3330,0.9461,0.0000
3.3340,0.9463,0.0000
3.3350,0.9466,0.0000
3.3360,0.9469,0.0000
3.3370,0.9473,0.0000
3.3380,0.9476,0.0000
3.3390,0.9479,0.0000
3.3400,0.9482,0.0000
3.3410,0.9485,0.0000
3.3420,0.9488,0.0000
3.3430,0.9491,0.0000
3.3440,0.9494,0.0000
3.3450,0.9497,0.0000
3.3460,0.9501,0.0000
3.3470,0.9504,0.0000
3.3480,0.9507,0.0000
3.3490,0.9510,0.0000
3.3500,0.9513,0.0000
3.3510,0.9516,0.0000
3.3520,0.9519,0.0000
3.3530,0.9522,0.0000
3.3540,0.9525,0.0000
3.3550,0.9528,0.0000
3.3560,0.9531,0.0000
3.3570,0.9534,0.0000
3.3580,0.9537,0.0000
3.3590,0.9540,0.0000
3.3600,0.9542,0.0000
3.3610,0.9545,0.0000
3.3620,0.9548,0.0000
3.3630,0.9551,0.0000
3.3640,0.9553,0.0000
3.3650,0.9556,0.0000
3.3660,0.9558,0.0000
3.3670,0.9561,0.0000
3.3680,0.9563,0.0000
3.3690,0.9566,0.0000
3.3700,0.9568,0.0000
3.3710,0.9570,0.0000
3.3720,0.9572,0.0000
3.3730,0.9574,0.0000
3.3740,0.9577,0.0000
3.3750,0.9579,0.0000
3.3760,0.9580,0.0000
3.3770,0.9582,0.0000
3.3780,0.9584,0.0000
3.3790,0.9586,0.0000
3.3800,0.9588,0.0000
3.3810,0.9589,0.0000
3.3820,0.9591,0.0000
3.3830,0.9592,0.0000
3.3840,0.9594,0.0000
3.3850,0.9595,0.0000
3.3860,0.9597,0.0000
3.3870,0.9598,0.0000
3.3880,0.9599,0.0000
3.3890,0.9600,0.0000
3.3900,0.9602,0.0000
3.3910,0.9603,0.0000
3.3920,0.9604,0.0000
3.3930,0.9605,0.0000
3.3940,0.9606,0.0000
3.3950,0.9606,0.0000
3.3960,0.9607,0.0000
3.3970,0.9608,0.0000
3.3980,0.9609,0.0000
3.3990,0.9609,0.0000
3.4000,0.9610,0.0000
3.4010,0.9611,0.0000
3.4020,0.9611,0.0000
3.4030,0.9612,0.0000
3.4040,0.9612,0.0000
3.4050,0.9613,0.0000
3.4060,0.9613,0.0000
3.4070,0.9614,0.0000
3.4080,0.9614,0.0000
3.4090,0.9615,0.0000
3.4100,0.9615,0.0000
3.4110,0.9615,0.0000
3.4120,0.9616,0.0000
3.4130,0.9616,0.0000
3.4140,0.9616,0.0000
3.4150,0.9617,0.0000
3.4160,0.9617,0.0000
3.4170,0.9617,0.0000
3.4180,0.9618,0.0000
3.4190,0.9618,0.0000
3.4200,0.9618,0.0000
3.4210,0.9618,0.0000
3.4220,0.9619,0.0000
3.4230,0.9619,0.0000
3.4240,0.9619,0.0000
3.4250,0.9620,0.0000
3.4260,0.9620,0.0000
3.4270,0.9620,0.0000
3.4280,0.9621,0.0000
3.4290,0.9621,0.0000
3.4300,0.9621,0.0000
3.4310,0.9622,0.0000
3.4320,0.9622,0.0000
3.4330,0.9623,0.0000
3.4340,0.9623,0.0000
3.4350,0.9623,0.0000
3.4360,0.9624,0.0000
3.4370,0.9624,0.0000
3.4380,0.9625,0.0000
3.4390,0.9625,0.0000
3.4400,0.9626,0.0000
3.4410,0.9627,0.0000
3.4420,0.9627,0.0000
3.4430,0.9628,0.0000
3.4440,0.9629,0.0000
3.4450,0.9629,0.0000
3.4460,0.9630,0.0000
3.4470,0.9631,0.0000
3.4480,0.9632,0.0000
3.4490,0.9632,0.0000
3.4500,0.9633,0.0000
3.4510,0.9634,0.0000
3.4520,0.9635,0.0000
3.4530,0.9636,0.0000
3.4540,0.9637,0.0000
3.4550,0.9638,0.0000
3.4560,0.9639,0.0000
3.4570,0.9640,0.0000
3.4580,0.9641,0.0000
3.4590,0.9642,0.0000
3.4600,0.9643,0.0000
3.4610,0.9644,0.0000
3.4620,0.9645,0.0000
3.4630,0.9646,0.0000
3.4640,0.9647,0.0000
3.4650,0.9648,0.0000
3.4660,0.9649,0.0000
3.4670,0.9651,0.0000
3.4680,0.9652,0.0000
3.4690,0.9653,0.0000
3.4700,0.9654,0.0000
3.4710,0.9655,0.0000
3.4720,0.9657,0.0000
3.4730,0.9658,0.0000
3.4740,0.9659,0.0000
3.4750,0.9660,0.0000
3.4760,0.9662,0.0000
3.4770,0.9663,0.0000
3.4780,0.9664,0.0000
3.4790,0.9665,0.0000
3.4800,0.9667,0.0000
3.4810,0.9668,0.0000
3.4820,0.9669,0.0000
3.4830,0.9670,0.0000
3.4840,0.9671,0.0000
3.4850,0.9673,0.0000
3.4860,0.9674,0.0000
3.4870,0.9675,0.0000
3.4880,0.9676,0.0000
3.4890,0.9677,0.0000
3.4900,0.9678,0.0000
3.4910,0.9679,0.0000
3.4920,0.9681,0.0000
3.4930,0.9682,0.0000
3.4940,0.9683,0.0000
3.4950,0.9684,0.0000
3.4960,0.9685,0.0000
3.4970,0.9686,0.0000
3.4980,0.9687,0.0000
3.4990,0.9687,0.0000
3.5000,0.9688,0.0000
3.5010,0.9689,0.0000
3.5020,0.9690,0.0000
3.5030,0.9691,0.0000
3.5040,0.9692,0.0000
3.5050,0.9693,0.0000
3.5060,0.9693,0.0000
3.5070,0.9694,0.0000
3.5080,0.9695,0.0000
3.5090,0.9696,0.0000
3.5100,0.9696,0.0000
3.5110,0.9697,0.0000
3.5120,0.9697,0.0000
3.5130,0.9698,0.0000
3.5140,0.9698,0.0000
3.5150,0.9699,0.0000
3.5160,0.9699,0.0000
3.5170,0.9700,0.0000
3.5180,0.9700,0.0000
3.5190,0.9700,0.0000
3.5200,0.9701,0.0000
3.5210,0.9701,0.0000
3.5220,0.9701,0.0000
3.5230,0.9701,0.0000
3.5240,0.9702,0.0000
3.5250,0.9702,0.0000
3.5260,0.9702,0.0000
3.5270,0.9702,0.0000
3.5280,0.9702,0.0000
3.5290,0.9702,0.0000
3.5300,0.9702,0.0000
3.5310,0.9702,0.0000
3.5320,0.9702,0.0000
3.5330,0.9702,0.0000
3.5340,0.9702,0.0000
3.5350,0.9701,0.0000
3.5360,0.9701,0.0000
3.5370,0.9701,0.0000
3.5380,0.9701,0.0000
3.5390,0.9701,0.0000
3.5400,0.9700,0.0000
3.5410,0.9700,0.0000
3.5420,0.9700,0.0000
3.5430,0.9700,0.0000
3.5440,0.9699,0.0000
3.5450,0.9699,0.0000
3.5460,0.9699,0.0000
3.5470,0.9698,0.0000
3.5480,0.9698,0.0000
3.5490,0.9698,0.0000
3.5500,0.9697,0.0000
3.5510,0.9697,0.0000
3.5520,0.9696,0.0000
3.5530,0.9696,0.0000
3.5540,0.9696,0.0000
3.5550,0.9695,0.0000
3.5560,0.9695,0.0000
3.5570,0.9695,0.0000
3.5580,0.9694,0.0000
3.5590,0.9694,0.0000
3.5600,0.9693,0.0000
3.5610,0.9693,0.0000
3.5620,0.9693,0.0000
3.5630,0.9692,0.0000
3.5640,0.9692,0.0000
3.5650,0.9692,0.0000
3.5660,0.9691,0.0000
3.5670,0.9691,0.0000
3.5680,0.9691,0.0000
3.5690,0.9690,0.0000
3.5700,0.9690,0.0000
3.5710,0.9690,0.0000
3.5720,0.9690,0.0000
3.5730,0.9689,0.0000
3.5740,0.9689,0.0000
3.5750,0.9689,0.0000
3.5760,0.9689,0.0000
3.5770,0.9689,0.0000
3.5780,0.9688,0.0000
3.5790,0.9688,0.0000
3.5800,0.9688,0.0000
3.5810,0.9688,0.0000
3.5820,0.9688,0.0000
3.5830,0.9688,0.0000
3.5840,0.9688,0.0000
3.5850,0.9688,0.0000
3.5860,0.9688,0.0000
3.5870,0.9688,0.0000
3.5880,0.9688,0.0000
3.5890,0.9688,0.0000
3.5900,0.9688,0.0000
3.5910,0.9688,0.0000
3.5920,0.9688,0.0000
3.5930,0.9689,0.0000
3.5940,0.9689,0.0000
3.5950,0.9689,0.0000
3.5960,0.9689,0.0000
3.5970,0.9689,0.0000
3.5980,0.9689,0.0000
3.5990,0.9690,0.0000
3.6000,0.9690,0.0000
3.6010,0.9690,0.0000
3.6020,0.9691,0.0000
3.6030,0.9691,0.0000
3.6040,0.9691,0.0000
3.6050,0.9692,0.0000
3.6060,0.9692,0.0000
3.6070,0.9692,0.0000
3.6080,0.9693,0.0000
3.6090,0.9693,0.0000
3.6100,0.9693,0.0000
3.6110,0.9694,0.0000
3.6120,0.9694,0.0000
3.6130,0.9695,0.0000
3.6140,0.9695,0.0000
3.6150,0.9696,0.0000
3.6160,0.9696,0.0000
3.6170,0.9696,0.0000
3.6180,0.9697,0.0000
3.6190,0.9697,0.0000
3.6200,0.9698,0.0000
3.6210,0.9698,0.0000
3.6220,0.9699,0.0000
3.6230,0.9699,0.0000
3.6240,0.9700,0.0000
3.6250,0.9700,0.0000
3.6260,0.9701,0.0000
3.6270,0.9701,0.0000
3.6280,0.9702,0.0000
3.6290,0.9702,0.0000
3.6300,0.9702,0.0000
3.6310,0.9703,0.0000
3.6320,0.9703,0.0000
3.6330,0.9704,0.0000
3.6340,0.9704,0.0000
3.6350,0.9705,0.0000
3.6360,0.9705,0.0000
3.6370,0.9706,0.0000
3.6380,0.9706,0.0000
3.6390,0.9706,0.0000
3.6400,0.9707,0.0000
3.6410,0.9707,0.0000
3.6420,0.9707,0.0000
3.6430,0.9708,0.0000
3.6440,0.9708,0.0000
3.6450,0.9708,0.0000
3.6460,0.9709,0.0000
3.6470,0.9709,0.0000
3.6480,0.9709,0.0000
3.6490,0.9710,0.0000
3.6500,0.9710,0.0000
3.6510,0.9710,0.0000
3.6520,0.9710,0.0000
3.6530,0.9711,0.0000
3.6540,0.9711,0.0000
3.6550,0.9711,0.0000
3.6560,0.9711,0.0000
3.6570,0.9712,0.0000
3.6580,0.9712,0.0000
3.6590,0.9712,0.0000
3.6600,0.9712,0.0000
3.6610,0.9712,0.0000
3.6620,0.9712,0.0000
3.6630,0.9712,0.0000
3.6640,0.9712,0.0000
3.6650,0.9712,0.0000
3.6660,0.9713,0.0000
3.6670,0.9713,0.0000
3.6680,0.9713,0.0000
3.6690,0.9713,0.0000
3.6700,0.9713,0.0000
3.6710,0.9713,0.0000
3.6720,0.9713,0.0000
3.6730,0.9713,0.0000
3.6740,0.9713,0.0000
3.6750,0.9713,0.0000
3.6760,0.9713,0.0000
3.6770,0.9713,0.0000
3.6780,0.9712,0.0000
3.6790,0.9712,0.0000
3.6800,0.9712,0.0000
3.6810,0.9712,0.0000
3.6820,0.9712,0.0000
3.6830,0.9712,0.0000
3.6840,0.9712,0.0000
3.6850,0.9712,0.0000
3.6860,0.9712,0.0000
3.6870,0.9712,0.0000
3.6880,0.9712,0.0000
3.6890,0.9711,0.0000
3.6900,0.9711,0.0000
3.6910,0.9711,0.0000
3.6920,0.9711,0.0000
3.6930,0.9711,0.0000
3.6940,0.9711,0.0000
3.6950,0.9711,0.0000
3.6960,0.9711,0.0000
3.6970,0.9711,0.0000
3.6980,0.9710,0.0000
3.6990,0.9710,0.0000
3.7000,0.9710,0.0000
3.7010,0.9710,0.0000
3.7020,0.9710,0.0000
3.7030,0.9710,0.0000
3.7040,0.9710,0.0000
3.7050,0.9710,0.0000
3.7060,0.9710,0.0000
3.7070,0.9710,0.0000
3.7080,0.9710,0.0000
3.7090,0.9710,0.0000
3.7100,0.9710,0.0000
3.7110,0.9710,0.0000
3.7120,0.9710,0.0000
3.7130,0.9710,0.0000
3.7140,0.9710,0.0000
3.7150,0.9710,0.0000
3.7160,0.9710,0.0000
3.7170,0.9710,0.0000
3.7180,0.9710,0.0000
3.7190,0.9710,0.0000
3.7200,0.9710,0.0000
3.7210,0.9710,0.0000
3.7220,0.9710,0.0000
3.7230,0.9710,0.0000
3.7240,0.9710,0.0000
3.7250,0.9710,0.0000
3.7260,0.9710,0.0000
3.7270,0.9710,0.0000
3.7280,0.9710,0.0000
3.7290,0.9711,0.0000
3.7300,0.9711,0.0000
3.7310,0.9711,0.0000
3.7320,0.9711,0.0000
3.7330,0.9711,0.0000
3.7340,0.9711,0.0000
3.7350,0.9712,0.0000
3.7360,0.9712,0.0000
3.7370,0.9712,0.0000
3.7380,0.9712,0.0000
3.7390,0.9713,0.0000
3.7400,0.9713,0.0000
3.7410,0.9713,0.0000
3.7420,0.9713,0.0000
3.7430,0.9714,0.0000
3.7440,0.9714,0.0000
3.7450,0.9714,0.0000
3.7460,0.9714,0.0000
3.7470,0.9715,0.0000
3.7480,0.9715,0.0000
3.7490,0.9715,0.0000
3.7500,0.9716,0.0000
3.7510,0.9716,0.0000
3.7520,0.9716,0.0000
3.7530,0.9717,0.0000
3.7540,0.9717,0.0000
3.7550,0.9717,0.0000
3.7560,0.9717,0.0000
3.7570,0.9718,0.0000
3.7580,0.9718,0.0000
3.7590,0.9718,0.0000
3.7600,0.9719,0.0000
3.7610,0.9719,0.0000
3.7620,0.9719,0.0000
3.7630,0.9719,0.0000
3.7640,0.9720,0.0000
3.7650,0.9720,0.0000
3.7660,0.9720,0.0000
3.7670,0.9721,0.0000
3.7680,0.9721,0.0000
3.7690,0.9721,0.0000
3.7700,0.9721,0.0000
3.7710,0.9721,0.0000
3.7720,0.9722,0.0000
3.7730,0.9722,0.0000
3.7740,0.9722,0.0000
3.7750,0.9722,0.0000
3.7760,0.9722,0.0000
3.7770,0.9722,0.0000
3.7780,0.9723,0.0000
3.7790,0.9723,0.0000
3.7800,0.9723,0.0000
3.7810,0.9723,0.0000
3.7820,0.9723,0.0000
3.7830,0.9723,0.0000
3.7840,0.9723,0.0000
3.7850,0.9723,0.0000
3.7860,0.9723,0.0000
3.7870,0.9723,0.0000
3.7880,0.9723,0.0000
3.7890,0.9723,0.0000
3.7900,0.9723,0.0000
3.7910,0.9723,0.0000
3.7920,0.9723,0.0000
3.7930,0.9722,0.0000
3.7940,0.9722,0.0000
3.7950,0.9722,0.0000
3.7960,0.9722,0.0000
3.7970,0.9722,0.0000
3.7980,0.9721,0.0000
3.7990,0.9721,0.0000
3.8000,0.9721,0.0000
3.8010,0.9720,0.0000
3.8020,0.9720,0.0000
3.8030,0.9720,0.0000
3.8040,0.9719,0.0000
3.8050,0.9719,0.0000
3.8060,0.9718,0.0000
3.8070,0.9718,0.0000
3.8080,0.9717,0.0000
3.8090,0.9717,0.0000
3.8100,0.9716,0.0000
3.8110,0.9716,0.0000
3.8120,0.9715,0.0000
3.8130,0.9714,0.0000
3.8140,0.9714,0.0000
3.8150,0.9713,0.0000
3.8160,0.9712,0.0000
3.8170,0.9712,0.0000
3.8180,0.9711,0.0000
3.8190,0.9710,0.0000
3.8200,0.9709,0.0000
3.8210,0.9708,0.0000
3.8220,0.9708,0.0000
3.8230,0.9707,0.0000
3.8240,0.9706,0.0000
3.8250,0.9705,0.0000
3.8260,0.9704,0.0000
3.8270,0.9703,0.0000
3.8280,0.9702,0.0000
3.8290,0.9701,0.0000
3.8300,0.9700,0.0000
3.8310,0.9699,0.0000
3.8320,0.9698,0.0000
3.8330,0.9697,0.0000
3.8340,0.9696,0.0000
3.8350,0.9695,0.0000
3.8360,0.9694,0.0000
3.8370,0.9693,0.0000
3.8380,0.9692,0.0000
3.8390,0.9691,0.0000
3.8400,0.9690,0.0000
3.8410,0.9688,0.0000
3.8420,0.9687,0.0000
3.8430,0.9686,0.0000
3.8440,0.9685,0.0000
3.8450,0.9684,0.0000
3.8460,0.9683,0.0000
3.8470,0.9682,0.0000
3.8480,0.9680,0.0000
3.8490,0.9679,0.0000
3.8500,0.9678,0.0000
3.8510,0.9677,0.0000
3.8520,0.9676,0.0000
3.8530,0.9675,0.0000
3.8540,0.9673,0.0000
3.8550,0.9672,0.0000
3.8560,0.9671,0.0000
3.8570,0.9670,0.0000
3.8580,0.9669,0.0000
3.8590,0.9668,0.0000
3.8600,0.9667,0.0000
3.8610,0.9665,0.0000
3.8620,0.9664,0.0000
3.8630,0.9663,0.0000
3.8640,0.9662,0.0000
3.8650,0.9661,0.0000
3.8660,0.9660,0.0000
3.8670,0.9659,0.0000
3.8680,0.9658,0.0000
3.8690,0.9657,0.0000
3.8700,0.9656,0.0000
3.8710,0.9655,0.0000
3.8720,0.9654,0.0000
3.8730,0.9653,0.0000
3.8740,0.9652,0.0000
3.8750,0.9651,0.0000
3.8760,0.9650,0.0000
3.8770,0.9649,0.0000
3.8780,0.9648,0.0000
3.8790,0.9647,0.0000
3.8800,0.9646,0.0000
3.8810,0.9645,0.0000
3.8820,0.9644,0.0000
3.8830,0.9643,0.0000
3.8840,0.9643,0.0000
3.8850,0.9642,0.0000
3.8860,0.9641,0.0000
3.8870,0.9640,0.0000
3.8880,0.9640,0.0000
3.8890,0.9639,0.0000
3.8900,0.9638,0.0000
3.8910,0.9637,0.0000
3.8920,0.9637,0.0000
3.8930,0.9636,0.0000
3.8940,0.9636,0.0000
3.8950,0.9635,0.0000
3.8960,0.9634,0.0000
3.8970,0.9634,0.0000
3.8980,0.9633,0.0000
3.8990,0.9633,0.0000
3.9000,0.9632,0.0000
3.9010,0.9632,0.0000
3.9020,0.9632,0.0000
3.9030,0.9631,0.0000
3.9040,0.9631,0.0000
3.9050,0.9630,0.0000
3.9060,0.9630,0.0000
3.9070,0.9630,0.0000
3.9080,0.9629,0.0000
3.9090,0.9629,0.0000
3.9100,0.9629,0.0000
3.9110,0.9629,0.0000
3.9120,0.9628,0.0000
3.9130,0.9628,0.0000
3.9140,0.9628,0.0000
3.9150,0.9628,0.0000
3.9160,0.9628,0.0000
3.9170,0.9628,0.0000
3.9180,0.9628,0.0000
3.9190,0.9628,0.0000
3.9200,0.9628,0.0000
3.9210,0.9628,0.0000
3.9220,0.9627,0.0000
3.9230,0.9627,0.0000
3.9240,0.9627,0.0000
3.9250,0.9628,0.0000
3.9260,0.9628,0.0000
3.9270,0.9628,0.0000
3.9280,0.9628,0.0000
3.9290,0.9628,0.0000
3.9300,0.9628,0.0000
3.9310,0.9628,0.0000
3.9320,0.9628,0.0000
3.9330,0.9628,0.0000
3.9340,0.9628,0.0000
3.9350,0.9629,0.0000
3.9360,0.9629,0.0000
3.9370,0.9629,0.0000
3.9380,0.9629,0.0000
3.9390,0.9629,0.0000
3.9400,0.9630,0.0000
3.9410,0.9630,0.0000
3.9420,0.9630,0.0000
3.9430,0.9630,0.0000
3.9440,0.9631,0.0000
3.9450,0.9631,0.0000
3.9460,0.9631,0.0000
3.9470,0.9631,0.0000
3.9480,0.9632,0.0000
3.9490,0.9632,0.0000
3.9500,0.9632,0.0000
3.9510,0.9632,0.0000
3.9520,0.9633,0.0000
3.9530,0.9633,0.0000
3.9540,0.9633,0.0000
3.9550,0.9634,0.0000
3.9560,0.9634,0.0000
3.9570,0.9634,0.0000
3.9580,0.9635,0.0000
3.9590,0.9635,0.0000
3.9600,0.9635,0.0000
3.9610,0.9636,0.0000
3.9620,0.9636,0.0000
3.9630,0.9636,0.0000
3.9640,0.9636,0.0000
3.9650,0.9637,0.0000
3.9660,0.9637,0.0000
3.9670,0.9637,0.0000
3.9680,0.9638,0.0000
3.9690,0.9638,0.0000
3.9700,0.9638,0.0000
3.9710,0.9639,0.0000
3.9720,0.9639,0.0000
3.9730,0.9639,0.0000
3.9740,0.9639,0.0000
3.9750,0.9640,0.0000
3.9760,0.9640,0.0000
3.9770,0.9640,0.0000
3.9780,0.9640,0.0000
3.9790,0.9641,0.0000
3.9800,0.9641,0.0000
3.9810,0.9641,0.0000
3.9820,0.9641,0.0000
3.9830,0.9642,0.0000
3.9840,0.9642,0.0000
3.9850,0.9642,0.0000
3.9860,0.9642,0.0000
3.9870,0.9643,0.0000
3.9880,0.9643,0.0000
3.9890,0.9643,0.0000
3.9900,0.9643,0.0000
3.9910,0.9643,0.0000
3.9920,0.9644,0.0000
3.9930,0.9644,0.0000
3.9940,0.9644,0.0000
3.9950,0.9644,0.0000
3.9960,0.9644,0.0000
3.9970,0.9644,0.0000
3.9980,0.9645,0.0000
3.9990,0.9645,0.0000
4.0000,0.9645,0.0000
4.0010,0.9645,0.0000
4.0020,0.9645,0.0000
4.0030,0.9645,0.0000
4.0040,0.9645,0.0000
4.0050,0.9645,0.0000
4.0060,0.9645,0.0000
4.0070,0.9645,0.0000
4.0080,0.9645,0.0000
4.0090,0.9644,0.0000
4.0100,0.9644,0.0000
4.0110,0.9644,0.0000
4.0120,0.9644,0.0000
4.0130,0.9644,0.0000
4.0140,0.9644,0.0000
4.0150,0.9644,0.0000
4.0160,0.9644,0.0000
4.0170,0.9644,0.0000
4.0180,0.9644,0.0000
4.0190,0.9644,0.0000
4.0200,0.9644,0.0000
4.0210,0.9644,0.0000
4.0220,0.9644,0.0000
4.0230,0.9644,0.0000
4.0240,0.9644,0.0000
4.0250,0.9644,0.0000
4.0260,0.9644,0.0000
4.0270,0.9644,0.0000
4.0280,0.9644,0.0000
4.0290,0.9644,0.0000
4.0300,0.9644,0.0000
4.0310,0.9644,0.0000
4.0320,0.9644,0.0000
4.0330,0.9644,0.0000
4.0340,0.9644,0.0000
4.0350,0.9644,0.0000
4.0360,0.9644,0.0000
4.0370,0.9644,0.0000
4.0380,0.9644,0.0000
4.0390,0.9645,0.0000
4.0400,0.9645,0.0000
4.0410,0.9645,0.0000
4.0420,0.9645,0.0000
4.0430,0.9645,0.0000
4.0440,0.9645,0.0000
4.0450,0.9645,0.0000
4.0460,0.9646,0.0000
4.0470,0.9646,0.0000
4.0480,0.9646,0.0000
4.0490,0.9646,0.0000
4.0500,0.9647,0.0000
4.0510,0.9647,0.0000
4.0520,0.9647,0.0000
4.0530,0.9648,0.0000
4.0540,0.9648,0.0000
4.0550,0.9648,0.0000
4.0560,0.9649,0.0000
4.0570,0.9649,0.0000
4.0580,0.9649,0.0000
4.0590,0.9650,0.0000
4.0600,0.9650,0.0000
4.0610,0.9651,0.0000
4.0620,0.9651,0.0000
4.0630,0.9652,0.0000
4.0640,0.9652,0.0000
4.0650,0.9653,0.0000
4.0660,0.9653,0.0000
4.0670,0.9654,0.0000
4.0680,0.9654,0.0000
4.0690,0.9655,0.0000
4.0700,0.9656,0.0000
4.0710,0.9656,0.0000
4.0720,0.9657,0.0000
4.0730,0.9657,0.0000
4.0740,0.9658,0.0000
4.0750,0.9659,0.0000
4.0760,0.9659,0.0000
4.0770,0.9660,0.0000
4.0780,0.9661,0.0000
4.0790,0.9662,0.0000
4.0800,0.9662,0.0000
4.0810,0.9663,0.0000
4.0820,0.9664,0.0000
4.0830,0.9665,0.0000
4.0840,0.9666,0.0000
4.0850,0.9667,0.0000
4.0860,0.9667,0.0000
4.0870,0.9668,0.0000
4.0880,0.9669,0.0000
4.0890,0.9670,0.0000
4.0900,0.9671,0.0000
4.0910,0.9672,0.0000
4.0920,0.9673,0.0000
4.0930,0.9674,0.0000
4.0940,0.9675,0.0000
4.0950,0.9676,0.0000
4.0960,0.9677,0.0000
4.0970,0.9677,0.0000
4.0980,0.9678,0.0000
4.0990,0.9679,0.0000
4.1000,0.9680,0.0000
4.1010,0.9682,0.0000
4.1020,0.9683,0.0000
4.1030,0.9684,0.0000
4.1040,0.9685,0.0000
4.1050,0.9686,0.0000
4.1060,0.9687,0.0000
4.1070,0.9688,0.0000
4.1080,0.9689,0.0000
4.1090,0.9690,0.0000
4.1100,0.9691,0.0000
4.1110,0.9692,0.0000
4.1120,0.9693,0.0000
4.1130,0.9694,0.0000
4.1140,0.9695,0.0000
4.1150,0.9696,0.0000
4.1160,0.9698,0.0000
4.1170,0.9699,0.0000
4.1180,0.9700,0.0000
4.1190,0.9701,0.0000
4.1200,0.9702,0.0000
4.1210,0.9703,0.0000
4.1220,0.9704,0.0000
4.1230,0.9705,0.0000
4.1240,0.9706,0.0000
4.1250,0.9707,0.0000
4.1260,0.9708,0.0000
4.1270,0.9710,0.0000
4.1280,0.9711,0.0000
4.1290,0.9712,0.0000
4.1300,0.9713,0.0000
4.1310,0.9714,0.0000
4.1320,0.9715,0.0000
4.1330,0.9716,0.0000
4.1340,0.9717,0.0000
4.1350,0.9718,0.0000
4.1360,0.9719,0.0000
4.1370,0.9720,0.0000
4.1380,0.9721,0.0000
4.1390,0.9722,0.0000
4.1400,0.9723,0.0000
4.1410,0.9724,0.0000
4.1420,0.9725,0.0000
4.1430,0.9726,0.0000
4.1440,0.9726,0.0000
4.1450,0.9727,0.0000
4.1460,0.9728,0.0000
4.1470,0.9729,0.0000
4.1480,0.9730,0.0000
4.1490,0.9731,0.0000
4.1500,0.9732,0.0000
4.1510,0.9732,0.0000
4.1520,0.9733,0.0000
4.1530,0.9734,0.0000
4.1540,0.9735,0.0000
4.1550,0.9735,0.0000
4.1560,0.9736,0.0000
4.1570,0.9737,0.0000
4.1580,0.9737,0.0000
4.1590,0.9738,0.0000
4.1600,0.9739,0.0000
4.1610,0.9739,0.0000
4.1620,0.9740,0.0000
4.1630,0.9740,0.0000
4.1640,0.9741,0.0000
4.1650,0.9741,0.0000
4.1660,0.9742,0.0000
4.1670,0.9742,0.0000
4.1680,0.9743,0.0000
4.1690,0.9743,0.0000
4.1700,0.9744,0.0000
4.1710,0.9744,0.0000
4.1720,0.9744,0.0000
4.1730,0.9744,0.0000
4.1740,0.9745,0.0000
4.1750,0.9745,0.0000
4.1760,0.9745,0.0000
4.1770,0.9745,0.0000
4.1780,0.9745,0.0000
4.1790,0.9746,0.0000
4.1800,0.9746,0.0000
4.1810,0.9746,0.0000
4.1820,0.9746,0.0000
4.1830,0.9746,0.0000
4.1840,0.9746,0.0000
4.1850,0.9746,0.0000
4.1860,0.9746,0.0000
4.1870,0.9746,0.0000
4.1880,0.9746,0.0000
4.1890,0.9746,0.0000
4.1900,0.9746,0.0000
4.1910,0.9746,0.0000
4.1920,0.9746,0.0000
4.1930,0.9745,0.0000
4.1940,0.9745,0.0000
4.1950,0.9745,0.0000
4.1960,0.9745,0.0000
4.1970,0.9745,0.0000
4.1980,0.9744,0.0000
4.1990,0.9744,0.0000
4.2000,0.9744,0.0000
4.2010,0.9744,0.0000
4.2020,0.9743,0.0000
4.2030,0.9743,0.0000
4.2040,0.9743,0.0000
4.2050,0.9742,0.0000
4.2060,0.9742,0.0000
4.2070,0.9742,0.0000
4.2080,0.9741,0.0000
4.2090,0.9741,0.0000
4.2100,0.9740,0.0000
4.2110,0.9740,0.0000
4.2120,0.9740,0.0000
4.2130,0.9739,0.0000
4.2140,0.9739,0.0000
4.2150,0.9738,0.0000
4.2160,0.9738,0.0000
4.2170,0.9737,0.0000
4.2180,0.9737,0.0000
4.2190,0.9736,0.0000
4.2200,0.9736,0.0000
4.2210,0.9735,0.0000
4.2220,0.9735,0.0000
4.2230,0.9734,0.0000
4.2240,0.9734,0.0000
4.2250,0.9733,0.0000
4.2260,0.9732,0.0000
4.2270,0.9732,0.0000
4.2280,0.9731,0.0000
4.2290,0.9731,0.0000
4.2300,0.9730,0.0000
4.2310,0.9730,0.0000
4.2320,0.9729,0.0000
4.2330,0.9728,0.0000
4.2340,0.9728,0.0000
4.2350,0.9727,0.0000
4.2360,0.9727,0.0000
4.2370,0.9726,0.0000
4.2380,0.9726,0.0000
4.2390,0.9725,0.0000
4.2400,0.9724,0.0000
4.2410,0.9724,0.0000
4.2420,0.9723,0.0000
4.2430,0.9723,0.0000
4.2440,0.9722,0.0000
4.2450,0.9722,0.0000
4.2460,0.9721,0.0000
4.2470,0.9721,0.0000
4.2480,0.9720,0.0000
4.2490,0.9719,0.0000
4.2500,0.9719,0.0000
4.2510,0.9718,0.0000
4.2520,0.9718,0.0000
4.2530,0.9717,0.0000
4.2540,0.9717,0.0000
4.2550,0.9716,0.0000
4.2560,0.9716,0.0000
4.2570,0.9716,0.0000
4.2580,0.9715,0.0000
4.2590,0.9715,0.0000
4.2600,0.9714,0.0000
4.2610,0.9714,0.0000
4.2620,0.9713,0.0000
4.2630,0.9713,0.0000
4.2640,0.9712,0.0000
4.2650,0.9712,0.0000
4.2660,0.9712,0.0000
4.2670,0.9711,0.0000
4.2680,0.9711,0.0000
4.2690,0.9711,0.0000
4.2700,0.9710,0.0000
4.2710,0.9710,0.0000
4.2720,0.9710,0.0000
4.2730,0.9709,0.0000
4.2740,0.9709,0.0000
4.2750,0.9709,0.0000
4.2760,0.9709,0.0000
4.2770,0.9708,0.0000
4.2780,0.9708,0.0000
4.2790,0.9708,0.0000
4.2800,0.9708,0.0000
4.2810,0.9707,0.0000
4.2820,0.9707,0.0000
4.2830,0.9707,0.0000
4.2840,0.9707,0.0000
4.2850,0.9707,0.0000
4.2860,0.9706,0.0000
4.2870,0.9706,0.0000
4.2880,0.9706,0.0000
4.2890,0.9706,0.0000
4.2900,0.9706,0.0000
4.2910,0.9706,0.0000
4.2920,0.9706,0.0000
4.2930,0.9706,0.0000
4.2940,0.9706,0.0000
4.2950,0.9706,0.0000
4.2960,0.9706,0.0000
4.2970,0.9706,0.0000
4.2980,0.9706,0.0000
4.2990,0.9706,0.0000
4.3000,0.9706,0.0000
4.3010,0.9706,0.0000
4.3020,0.9706,0.0000
4.3030,0.9706,0.0000
4.3040,0.9706,0.0000
4.3050,0.9706,0.0000
4.3060,0.9706,0.0000
4.3070,0.9706,0.0000
4.3080,0.9706,0.0000
4.3090,0.9706,0.0000
4.3100,0.9706,0.0000
4.3110,0.9706,0.0000
4.3120,0.9706,0.0000
4.3130,0.9706,0.0000
4.3140,0.9707,0.0000
4.3150,0.9707,0.0000
4.3160,0.9707,0.0000
4.3170,0.9707,0.0000
4.3180,0.9707,0.0000
4.3190,0.9707,0.0000
4.3200,0.9707,0.0000
4.3210,0.9707,0.0000
4.3220,0.9708,0.0000
4.3230,0.9708,0.0000
4.3240,0.9708,0.0000
4.3250,0.9708,0.0000
4.3260,0.9708,0.0000
4.3270,0.9708,0.0000
4.3280,0.9709,0.0000
4.3290,0.9709,0.0000
4.3300,0.9709,0.0000
4.3310,0.9709,0.0000
4.3320,0.9709,0.0000
4.3330,0.9709,0.0000
4.3340,0.9709,0.0000
4.3350,0.9710,0.0000
4.3360,0.9710,0.0000
4.3370,0.9710,0.0000
4.3380,0.9710,0.0000
4.3390,0.9710,0.0000
4.3400,0.9710,0.0000
4.3410,0.9711,0.0000
4.3420,0.9711,0.0000
4.3430,0.9711,0.0000
4.3440,0.9711,0.0000
4.3450,0.9711,0.0000
4.3460,0.9711,0.0000
4.3470,0.9711,0.0000
4.3480,0.9711,0.0000
4.3490,0.9711,0.0000
4.3500,0.9711,0.0000
4.3510,0.9711,0.0000
4.3520,0.9711,0.0000
4.3530,0.9711,0.0000
4.3540,0.9711,0.0000
4.3550,0.9710,0.0000
4.3560,0.9710,0.0000
4.3570,0.9710,0.0000
4.3580,0.9710,0.0000
4.3590,0.9710,0.0000
4.3600,0.9710,0.0000
4.3610,0.9709,0.0000
4.3620,0.9709,0.0000
4.3630,0.9709,0.0000
4.3640,0.9709,0.0000
4.3650,0.9708,0.0000
4.3660,0.9708,0.0000
4.3670,0.9708,0.0000
4.3680,0.9708,0.0000
4.3690,0.9707,0.0000
4.3700,0.9707,0.0000
4.3710,0.9707,0.0000
4.3720,0.9706,0.0000
4.3730,0.9706,0.0000
4.3740,0.9706,0.0000
4.3750,0.9706,0.0000
4.3760,0.9705,0.0000
4.3770,0.9705,0.0000
4.3780,0.9704,0.0000
4.3790,0.9704,0.0000
4.3800,0.9704,0.0000
4.3810,0.9703,0.0000
4.3820,0.9703,0.0000
4.3830,0.9702,0.0000
4.3840,0.9702,0.0000
4.3850,0.9702,0.0000
4.3860,0.9701,0.0000
4.3870,0.9701,0.0000
4.3880,0.9700,0.0000
4.3890,0.9700,0.0000
4.3900,0.9699,0.0000
4.3910,0.9699,0.0000
4.3920,0.9698,0.0000
4.3930,0.9698,0.0000
4.3940,0.9697,0.0000
4.3950,0.9697,0.0000
4.3960,0.9696,0.0000
4.3970,0.9696,0.0000
4.3980,0.9696,0.0000
4.3990,0.9696,0.0000
4.4000,0.9697,0.0000
4.4010,0.9697,0.0000
4.4020,0.9697,0.0000
4.4030,0.9697,0.0000
4.4040,0.9697,0.0000
4.4050,0.9697,0.0000
4.4060,0.9697,0.0000
4.4070,0.9697,0.0000
4.4080,0.9697,0.0000
4.4090,0.9697,0.0000
4.4100,0.9697,0.0000
4.4110,0.9697,0.0000
4.4120,0.9697,0.0000
4.4130,0.9697,0.0000
4.4140,0.9697,0.0000
4.4150,0.9697,0.0000
4.4160,0.9697,0.0000
4.4170,0.9697,0.0000
4.4180,0.9697,0.0000
4.4190,0.9697,0.0000
4.4200,0.9697,0.0000
4.4210,0.9697,0.0000
4.4220,0.9697,0.0000
4.4230,0.9697,0.0000
4.4240,0.9697,0.0000
4.4250,0.9697,0.0000
4.4260,0.9697,0.0000
4.4270,0.9697,0.0000
4.4280,0.9697,0.0000
4.4290,0.9697,0.0000
4.4300,0.9697,0.0000
4.4310,0.9697,0.0000
4.4320,0.9697,0.0000
4.4330,0.9697,0.0000
4.4340,0.9697,0.0000
4.4350,0.9697,0.0000
4.4360,0.9697,0.0000
4.4370,0.9697,0.0000
4.4380,0.9697,0.0000
4.4390,0.9697,0.0000
4.4400,0.9697,0.0000
4.4410,0.9697,0.0000
4.4420,0.9697,0.0000
4.4430,0.9697,0.0000
4.4440,0.9697,0.0000
4.4450,0.9697,0.0000
4.4460,0.9697,0.0000
4.4470,0.9696,0.0000
4.4480,0.9696,0.0000
4.4490,0.9696,0.0000
4.4500,0.9696,0.0000
4.4510,0.9696,0.0000
4.4520,0.9695,0.0000
4.4530,0.9695,0.0000
4.4540,0.9695,0.0000
4.4550,0.9695,0.0000
4.4560,0.9695,0.0000
4.4570,0.9695,0.0000
4.4580,0.9695,0.0000
4.4590,0.9694,0.0000
4.4600,0.9694,0.0000
4.4610,0.9694,0.0000
4.4620,0.9694,0.0000
4.4630,0.9694,0.0000
4.4640,0.9694,0.0000
4.4650,0.9694,0.0000
4.4660,0.9694,0.0000
4.4670,0.9694,0.0000
4.4680,0.9694,0.0000
4.4690,0.9694,0.0000
4.4700,0.9694,0.0000
4.4710,0.9694,0.0000
4.4720,0.9694,0.0000
4.4730,0.9695,0.0000
4.4740,0.9695,0.0000
4.4750,0.9695,0.0000
4.4760,0.9695,0.0000
4.4770,0.9695,0.0000
4.4780,0.9695,0.0000
4.4790,0.9696,0.0000
4.4800,0.9696,0.0000
4.4810,0.9696,0.0000
4.4820,0.9696,0.0000
4.4830,0.9696,0.0000
4.4840,0.9697,0.0000
4.4850,0.9697,0.0000
4.4860,0.9697,0.0000
4.4870,0.9698,0.0000
4.4880,0.9698,0.0000
4.4890,0.9698,0.0000
4.4900,0.9699,0.0000
4.4910,0.9699,0.0000
4.4920,0.9700,0.0000
4.4930,0.9700,0.0000
4.4940,0.9700,0.0000
4.4950,0.9701,0.0000
4.4960,0.9701,0.0000
4.4970,0.9701,0.0000
4.4980,0.9702,0.0000
4.4990,0.9702,0.0000
4.5000,0.9703,0.0000
4.5010,0.9703,0.0000
4.5020,0.9703,0.0000
4.5030,0.9704,0.0000
4.5040,0.9704,0.0000
4.5050,0.9705,0.0000
4.5060,0.9705,0.0000
4.5070,0.9706,0.0000
4.5080,0.9706,0.0000
4.5090,0.9707,0.0000
4.5100,0.9707,0.0000
4.5110,0.9708,0.0000
4.5120,0.9708,0.0000
4.5130,0.9709,0.0000
4.5140,0.9709,0.0000
4.5150,0.9710,0.0000
4.5160,0.9710,0.0000
4.5170,0.9711,0.0000
4.5180,0.9712,0.0000
4.5190,0.9712,0.0000
4.5200,0.9713,0.0000
4.5210,0.9714,0.0000
4.5220,0.9714,0.0000
4.5230,0.9715,0.0000
4.5240,0.9715,0.0000
4.5250,0.9716,0.0000
4.5260,0.9717,0.0000
4.5270,0.9717,0.0000
4.5280,0.9718,0.0000
4.5290,0.9719,0.0000
4.5300,0.9720,0.0000
4.5310,0.9720,0.0000
4.5320,0.9721,0.0000
4.5330,0.9722,0.0000
4.5340,0.9722,0.0000
4.5350,0.9723,0.0000
4.5360,0.9724,0.0000
4.5370,0.9724,0.0000
4.5380,0.9725,0.0000
4.5390,0.9726,0.0000
4.5400,0.9727,0.0000
4.5410,0.9727,0.0000
4.5420,0.9728,0.0000
4.5430,0.9729,0.0000
4.5440,0.9729,0.0000
4.5450,0.9730,0.0000
4.5460,0.9731,0.0000
4.5470,0.9731,0.0000
4.5480,0.9732,0.0000
4.5490,0.9733,0.0000
4.5500,0.9733,0.0000
4.5510,0.9734,0.0000
4.5520,0.9735,0.0000
4.5530,0.9735,0.0000
4.5540,0.9736,0.0000
4.5550,0.9736,0.0000
4.5560,0.9737,0.0000
4.5570,0.9738,0.0000
4.5580,0.9738,0.0000
4.5590,0.9739,0.0000
4.5600,0.9739,0.0000
4.5610,0.9740,0.0000
4.5620,0.9740,0.0000
4.5630,0.9741,0.0000
4.5640,0.9741,0.0000
4.5650,0.9742,0.0000
4.5660,0.9742,0.0000
4.5670,0.9743,0.0000
4.5680,0.9743,0.0000
4.5690,0.9744,0.0000
4.5700,0.9744,0.0000
4.5710,0.9744,0.0000
4.5720,0.9745,0.0000
4.5730,0.9745,0.0000
4.5740,0.9746,0.0000
4.5750,0.9746,0.0000
4.5760,0.9746,0.0000
4.5770,0.9747,0.0000
4.5780,0.9747,0.0000
4.5790,0.9747,0.0000
4.5800,0.9747,0.0000
4.5810,0.9747,0.0000
4.5820,0.9748,0.0000
4.5830,0.9748,0.0000
4.5840,0.9748,0.0000
4.5850,0.9748,0.0000
4.5860,0.9748,0.0000
4.5870,0.9748,0.0000
4.5880,0.9748,0.0000
4.5890,0.9748,0.0000
4.5900,0.9748,0.0000
4.5910,0.9748,0.0000
4.5920,0.9748,0.0000
4.5930,0.9748,0.0000
4.5940,0.9748,0.0000
4.5950,0.9748,0.0000
4.5960,0.9748,0.0000
4.5970,0.9748,0.0000
4.5980,0.9748,0.0000
4.5990,0.9748,0.0000
4.6000,0.9747,0.0000
4.6010,0.9747,0.0000
4.6020,0.9747,0.0000
4.6030,0.9746,0.0000
4.6040,0.9746,0.0000
4.6050,0.9746,0.0000
4.6060,0.9745,0.0000
4.6070,0.9745,0.0000
4.6080,0.9745,0.0000
4.6090,0.9744,0.0000
4.6100,0.9744,0.0000
4.6110,0.9743,0.0000
4.6120,0.9743,0.0000
4.6130,0.9742,0.0000
4.6140,0.9741,0.0000
4.6150,0.9741,0.0000
4.6160,0.9740,0.0000
4.6170,0.9739,0.0000
4.6180,0.9739,0.0000
4.6190,0.9738,0.0000
4.6200,0.9737,0.0000
4.6210,0.9736,0.0000
4.6220,0.9736,0.0000
4.6230,0.9735,0.0000
4.6240,0.9734,0.0000
4.6250,0.9733,0.0000
4.6260,0.9732,0.0000
4.6270,0.9731,0.0000
4.6280,0.9730,0.0000
4.6290,0.9729,0.0000
4.6300,0.9728,0.0000
4.6310,0.9727,0.0000
4.6320,0.9726,0.0000
4.6330,0.9725,0.0000
4.6340,0.9724,0.0000
4.6350,0.9723,0.0000
4.6360,0.9722,0.0000
4.6370,0.9721,0.0000
4.6380,0.9719,0.0000
4.6390,0.9718,0.0000
4.6400,0.9717,0.0000
4.6410,0.9716,0.0000
4.6420,0.9714,0.0000
4.6430,0.9713,0.0000
4.6440,0.9712,0.0000
4.6450,0.9710,0.0000
4.6460,0.9709,0.0000
4.6470,0.9708,0.0000
4.6480,0.9706,0.0000
4.6490,0.9705,0.0000
4.6500,0.9704,0.0000
4.6510,0.9702,0.0000
4.6520,0.9701,0.0000
4.6530,0.9699,0.0000
4.6540,0.9698,0.0000
4.6550,0.9696,0.0000
4.6560,0.9694,0.0000
4.6570,0.9693,0.0000
4.6580,0.9691,0.0000
4.6590,0.9690,0.0000
4.6600,0.9688,0.0000
4.6610,0.9686,0.0000
4.6620,0.9685,0.0000
4.6630,0.9683,0.0000
4.6640,0.9682,0.0000
4.6650,0.9680,0.0000
4.6660,0.9678,0.0000
4.6670,0.9677,0.0000
4.6680,0.9675,0.0000
4.6690,0.9673,0.0000
4.6700,0.9671,0.0000
4.6710,0.9670,0.0000
4.6720,0.9668,0.0000
4.6730,0.9666,0.0000
4.6740,0.9665,0.0000
4.6750,0.9663,0.0000
4.6760,0.9661,0.0000
4.6770,0.9660,0.0000
4.6780,0.9658,0.0000
4.6790,0.9656,0.0000
4.6800,0.9654,0.0000
4.6810,0.9653,0.0000
4.6820,0.9651,0.0000
4.6830,0.9649,0.0000
4.6840,0.9648,0.0000
4.6850,0.9646,0.0000
4.6860,0.9644,0.0000
4.6870,0.9642,0.0000
4.6880,0.9641,0.0000
4.6890,0.9639,0.0000
4.6900,0.9637,0.0000
4.6910,0.9636,0.0000
4.6920,0.9634,0.0000
4.6930,0.9632,0.0000
4.6940,0.9631,0.0000
4.6950,0.9629,0.0000
4.6960,0.9628,0.0000
4.6970,0.9626,0.0000
4.6980,0.9624,0.0000
4.6990,0.9623,0.0000
4.7000,0.9621,0.0000
4.7010,0.9620,0.0000
4.7020,0.9618,0.0000
4.7030,0.9616,0.0000
4.7040,0.9615,0.0000
4.7050,0.9613,0.0000
4.7060,0.9612,0.0000
4.7070,0.9610,0.0000
4.7080,0.9609,0.0000
4.7090,0.9608,0.0000
4.7100,0.9606,0.0000
4.7110,0.9605,0.0000
4.7120,0.9603,0.0000
4.7130,0.9602,0.0000
4.7140,0.9601,0.0000
4.7150,0.9599,0.0000
4.7160,0.9598,0.0000
4.7170,0.9597,0.0000
4.7180,0.9595,0.0000
4.7190,0.9594,0.0000
4.7200,0.9593,0.0000
4.7210,0.9592,0.0000
4.7220,0.9591,0.0000
4.7230,0.9589,0.0000
4.7240,0.9588,0.0000
4.7250,0.9587,0.0000
4.7260,0.9586,0.0000
4.7270,0.9585,0.0000
4.7280,0.9584,0.0000
4.7290,0.9583,0.0000
4.7300,0.9582,0.0000
4.7310,0.9581,0.0000
4.7320,0.9580,0.0000
4.7330,0.9579,0.0000
4.7340,0.9578,0.0000
4.7350,0.9577,0.0000
4.7360,0.9577,0.0000
4.7370,0.9576,0.0000
4.7380,0.9575,0.0000
4.7390,0.9574,0.0000
4.7400,0.9573,0.0000
4.7410,0.9573,0.0000
4.7420,0.9572,0.0000
4.7430,0.9571,0.0000
4.7440,0.9571,0.0000
4.7450,0.9570,0.0000
4.7460,0.9570,0.0000
4.7470,0.9569,0.0000
4.7480,0.9569,0.0000
4.7490,0.9568,0.0000
4.7500,0.9568,0.0000
4.7510,0.9567,0.0000
4.7520,0.9567,0.0000
4.7530,0.9566,0.0000
4.7540,0.9566,0.0000
4.7550,0.9566,0.0000
4.7560,0.9565,0.0000
4.7570,0.9565,0.0000
4.7580,0.9565,0.0000
4.7590,0.9565,0.0000
4.7600,0.9565,0.0000
4.7610,0.9564,0.0000
4.7620,0.9564,0.0000
4.7630,0.9564,0.0000
4.7640,0.9563,0.0000
4.7650,0.9563,0.0000
4.7660,0.9563,0.0000
4.7670,0.9562,0.0000
4.7680,0.9562,0.0000
4.7690,0.9562,0.0000
4.7700,0.9561,0.0000
4.7710,0.9561,0.0000
4.7720,0.9561,0.0000
4.7730,0.9561,0.0000
4.7740,0.9561,0.0000
4.7750,0.9561,0.0000
4.7760,0.9561,0.0000
4.7770,0.9560,0.0000
4.7780,0.9560,0.0000
4.7790,0.9560,0.0000
4.7800,0.9560,0.0000
4.7810,0.9560,0.0000
4.7820,0.9560,0.0000
4.7830,0.9560,0.0000
4.7840,0.9561,0.0000
4.7850,0.9561,0.0000
4.7860,0.9561,0.0000
4.7870,0.9561,0.0000
4.7880,0.9561,0.0000
4.7890,0.9561,0.0000
4.7900,0.9562,0.0000
4.7910,0.9562,0.0000
4.7920,0.9562,0.0000
4.7930,0.9562,0.0000
4.7940,0.9563,0.0000
4.7950,0.9563,0.0000
4.7960,0.9563,0.0000
4.7970,0.9564,0.0000
4.7980,0.9564,0.0000
4.7990,0.9564,0.0000
4.8000,0.9565,0.0000
4.8010,0.9565,0.0000
4.8020,0.9566,0.0000
4.8030,0.9566,0.0000
4.8040,0.9566,0.0000
4.8050,0.9567,0.0000
4.8060,0.9567,0.0000
4.8070,0.9568,0.0000
4.8080,0.9568,0.0000
4.8090,0.9569,0.0000
4.8100,0.9569,0.0000
4.8110,0.9570,0.0000
4.8120,0.9571,0.0000
4.8130,0.9571,0.0000
4.8140,0.9572,0.0000
4.8150,0.9572,0.0000
4.8160,0.9573,0.0000
4.8170,0.9573,0.0000
4.8180,0.9574,0.0000
4.8190,0.9575,0.0000
4.8200,0.9575,0.0000
4.8210,0.9576,0.0000
4.8220,0.9577,0.0000
4.8230,0.9577,0.0000
4.8240,0.9578,0.0000
4.8250,0.9579,0.0000
4.8260,0.9579,0.0000
4.8270,0.9580,0.0000
4.8280,0.9581,0.0000
4.8290,0.9581,0.0000
4.8300,0.9582,0.0000
4.8310,0.9583,0.0000
4.8320,0.9583,0.0000
4.8330,0.9584,0.0000
4.8340,0.9585,0.0000
4.8350,0.9585,0.0000
4.8360,0.9586,0.0000
4.8370,0.9587,0.0000
4.8380,0.9587,0.0000
4.8390,0.9588,0.0000
4.8400,0.9589,0.0000
4.8410,0.9589,0.0000
4.8420,0.9590,0.0000
4.8430,0.9591,0.0000
4.8440,0.9591,0.0000
4.8450,0.9592,0.0000
4.8460,0.9593,0.0000
4.8470,0.9593,0.0000
4.8480,0.9594,0.0000
4.8490,0.9594,0.0000
4.8500,0.9595,0.0000
4.8510,0.9596,0.0000
4.8520,0.9596,0.0000
4.8530,0.9597,0.0000
4.8540,0.9597,0.0000
4.8550,0.9598,0.0000
4.8560,0.9599,0.0000
4.8570,0.9599,0.0000
4.8580,0.9600,0.0000
4.8590,0.9600,0.0000
4.8600,0.9601,0.0000
4.8610,0.9601,0.0000
4.8620,0.9602,0.0000
4.8630,0.9602,0.0000
4.8640,0.9603,0.0000
4.8650,0.9603,0.0000
4.8660,0.9604,0.0000
4.8670,0.9604,0.0000
4.8680,0.9605,0.0000
4.8690,0.9605,0.0000
4.8700,0.9605,0.0000
4.8710,0.9606,0.0000
4.8720,0.9606,0.0000
4.8730,0.9607,0.0000
4.8740,0.9607,0.0000
4.8750,0.9607,0.0000
4.8760,0.9608,0.0000
4.8770,0.9608,0.0000
4.8780,0.9608,0.0000
4.8790,0.9606,0.0000
4.8800,0.9603,0.0000
4.8810,0.9600,0.0000
4.8820,0.9597,0.0000
4.8830,0.9595,0.0000
4.8840,0.9592,0.0000
4.8850,0.9589,0.0000
4.8860,0.9586,0.0000
4.8870,0.9583,0.0000
4.8880,0.9580,0.0000
4.8890,0.9578,0.0000
4.8900,0.9575,0.0000
4.8910,0.9572,0.0000
4.8920,0.9569,0.0000
4.8930,0.9566,0.0000
4.8940,0.9563,0.0000
4.8950,0.9560,0.0000
4.8960,0.9557,0.0000
4.8970,0.9554,0.0000
4.8980,0.9551,0.0000
4.8990,0.9548,0.0000
4.9000,0.9545,0.0000
4.9010,0.9542,0.0000
4.9020,0.9539,0.0000
4.9030,0.9536,0.0000
4.9040,0.9533,0.0000
4.9050,0.9529,0.0000
4.9060,0.9526,0.0000
4.9070,0.9523,0.0000
4.9080,0.9520,0.0000
4.9090,0.9517,0.0000
4.9100,0.9514,0.0000
4.9110,0.9510,0.0000
4.9120,0.9507,0.0000
4.9130,0.9504,0.0000
4.9140,0.9500,0.0000
4.9150,0.9497,0.0000
4.9160,0.9494,0.0000
4.9170,0.9491,0.0000
4.9180,0.9487,0.0000
4.9190,0.9484,0.0000
4.9200,0.9480,0.0000
4.9210,0.9477,0.0000
4.9220,0.9474,0.0000
4.9230,0.9470,0.0000
4.9240,0.9467,0.0000
4.9250,0.9463,0.0000
4.9260,0.9460,0.0000
4.9270,0.9456,0.0000
4.9280,0.9453,0.0000
4.9290,0.9449,0.0000
4.9300,0.9446,0.0000
4.9310,0.9442,0.0000
4.9320,0.9439,0.0000
4.9330,0.9435,0.0000
4.9340,0.9432,0.0000
4.9350,0.9428,0.0000
4.9360,0.9424,0.0000
4.9370,0.9421,0.0000
4.9380,0.9417,0.0000
4.9390,0.9413,0.0000
4.9400,0.9410,0.0000
4.9410,0.9406,0.0000
4.9420,0.9402,0.0000
4.9430,0.9399,0.0000
4.9440,0.9395,0.0000
4.9450,0.9391,0.0000
4.9460,0.9388,0.0000
4.9470,0.9384,0.0000
4.9480,0.9380,0.0000
4.9490,0.9376,0.0000
4.9500,0.9373,0.0000
4.9510,0.9369,0.0000
4.9520,0.9365,0.0000
4.9530,0.9361,0.0000
4.9540,0.9357,0.0000
4.9550,0.9354,0.0000
4.9560,0.9350,0.0000
4.9570,0.9346,0.0000
4.9580,0.9342,0.0000
4.9590,0.9338,0.0000
4.9600,0.9334,0.0000
4.9610,0.9330,0.0000
4.9620,0.9327,0.0000
4.9630,0.9323,0.0000
4.9640,0.9319,0.0000
4.9650,0.9315,0.0000
4.9660,0.9311,0.0000
4.9670,0.9307,0.0000
4.9680,0.9303,0.0000
4.9690,0.9299,0.0000
4.9700,0.9295,0.0000
4.9710,0.9291,0.0000
4.9720,0.9287,0.0000
4.9730,0.9284,0.0000
4.9740,0.9280,0.0000
4.9750,0.9276,0.0000
4.9760,0.9272,0.0000
4.9770,0.9268,0.0000
4.9780,0.9264,0.0000
4.9790,0.9260,0.0000
4.9800,0.9256,0.0000
4.9810,0.9252,0.0000
4.9820,0.9248,0.0000
4.9830,0.9244,0.0000
4.9840,0.9240,0.0000
4.9850,0.9236,0.0000
4.9860,0.9232,0.0000
4.9870,0.9228,0.0000
4.9880,0.9224,0.0000
4.9890,0.9220,0.0000
4.9900,0.9216,0.0000
4.9910,0.9212,0.0000
4.9920,0.9208,0.0000
4.9930,0.9204,0.0000
4.9940,0.9200,0.0000
4.9950,0.9196,0.0000
4.9960,0.9192,0.0000
4.9970,0.9188,0.0000
4.9980,0.9184,0.0000
4.9990,0.9180,0.0000
5.0000,0.9176,0.0000
5.0010,0.9173,0.0000
5.0020,0.9170,0.0000
5.0030,0.9167,0.0000
5.0040,0.9164,0.0000
5.0050,0.9162,0.0000
5.0060,0.9159,0.0000
5.0070,0.9156,0.0000
5.0080,0.9153,0.0000
5.0090,0.9150,0.0000
5.0100,0.9147,0.0000
5.0110,0.9144,0.0000
5.0120,0.9141,0.0000
5.0130,0.9138,0.0000
5.0140,0.9136,0.0000
5.0150,0.9133,0.0000
5.0160,0.9130,0.0000
5.0170,0.9127,0.0000
5.0180,0.9124,0.0000
5.0190,0.9121,0.0000
5.0200,0.9118,0.0000
5.0210,0.9115,0.0000
5.0220,0.9112,0.0000
5.0230,0.9109,0.0000
5.0240,0.9106,0.0000
5.0250,0.9103,0.0000
5.0260,0.9100,0.0000
5.0270,0.9097,0.0000
5.0280,0.9095,0.0000
5.0290,0.9092,0.0000
5.0300,0.9089,0.0000
5.0310,0.9086,0.0000
5.0320,0.9083,0.0000
5.0330,0.9080,0.0000
5.0340,0.9077,0.0000
5.0350,0.9074,0.0000
5.0360,0.9071,0.0000
5.0370,0.9068,0.0000
5.0380,0.9065,0.0000
5.0390,0.9062,0.0000
5.0400,0.9059,0.0000
5.0410,0.9056,0.0000
5.0420,0.9053,0.0000
5.0430,0.9050,0.0000
5.0440,0.9047,0.0000
5.0450,0.9043,0.0000
5.0460,0.9040,0.0000
5.0470,0.9037,0.0000
5.0480,0.9034,0.0000
5.0490,0.9031,0.0000
5.0500,0.9028,0.0000
5.0510,0.9025,0.0000
5.0520,0.9022,0.0000
5.0530,0.9019,0.0000
5.0540,0.9016,0.0000
5.0550,0.9012,0.0000
5.0560,0.9009,0.0000
5.0570,0.9006,0.0000
5.0580,0.9003,0.0000
5.0590,0.9000,0.0000
5.0600,0.8997,0.0000
5.0610,0.8993,0.0000
5.0620,0.8990,0.0000
5.0630,0.8987,0.0000
5.0640,0.8986,0.0000
5.0650,0.8985,0.0000
5.0660,0.8983,0.0000
5.0670,0.8982,0.0000
5.0680,0.8981,0.0000
5.0690,0.8980,0.0000
5.0700,0.8979,0.0000
5.0710,0.8977,0.0000
5.0720,0.8976,0.0000
5.0730,0.8975,0.0000
5.0740,0.8973,0.0000
5.0750,0.8972,0.0000
5.0760,0.8971,0.0000
5.0770,0.8969,0.0000
5.0780,0.8968,0.0000
5.0790,0.8967,0.0000
5.0800,0.8965,0.0000
5.0810,0.8964,0.0000
5.0820,0.8962,0.0000
5.0830,0.8961,0.0000
5.0840,0.8959,0.0000
5.0850,0.8958,0.0000
5.0860,0.8956,0.0000
5.0870,0.8955,0.0000
5.0880,0.8953,0.0000
5.0890,0.8952,0.0000
5.0900,0.8950,0.0000
5.0910,0.8948,0.0000
5.0920,0.8947,0.0000
5.0930,0.8945,0.0000
5.0940,0.8943,0.0000
5.0950,0.8941,0.0000
5.0960,0.8940,0.0000
5.0970,0.8938,0.0000
5.0980,0.8936,0.0000
5.0990,0.8934,0.0000
5.1000,0.8932,0.0000
5.1010,0.8930,0.0000
5.1020,0.8928,0.0000
5.1030,0.8926,0.0000
5.1040,0.8925,0.0000
5.1050,0.8922,0.0000
5.1060,0.8920,0.0000
5.1070,0.8918,0.0000
5.1080,0.8916,0.0000
5.1090,0.8914,0.0000
5.1100,0.8912,0.0000
5.1110,0.8910,0.0000
5.1120,0.8908,0.0000
5.1130,0.8905,0.0000
5.1140,0.8903,0.0000
5.1150,0.8901,0.0000
5.1160,0.8898,0.0000
5.1170,0.8896,0.0000
5.1180,0.8894,0.0000
5.1190,0.8891,0.0000
5.1200,0.8889,0.0000
5.1210,0.8886,0.0000
5.1220,0.8884,0.0000
5.1230,0.8881,0.0000
5.1240,0.8878,0.0000
5.1250,0.8876,0.0000
5.1260,0.8873,0.0000
5.1270,0.8870,0.0000
5.1280,0.8868,0.0000
5.1290,0.8865,0.0000
5.1300,0.8862,0.0000
5.1310,0.8859,0.0000
5.1320,0.8856,0.0000
5.1330,0.8853,0.0000
5.1340,0.8850,0.0000
5.1350,0.8847,0.0000
5.1360,0.8844,0.0000
5.1370,0.8841,0.0000
5.1380,0.8838,0.0000
5.1390,0.8835,0.0000
5.1400,0.8832,0.0000
5.1410,0.8829,0.0000
5.1420,0.8826,0.0000
5.1430,0.8822,0.0000
5.1440,0.8819,0.0000
5.1450,0.8816,0.0000
5.1460,0.8812,0.0000
5.1470,0.8809,0.0000
5.1480,0.8805,0.0000
5.1490,0.8802,0.0000
5.1500,0.8798,0.0000
5.1510,0.8795,0.0000
5.1520,0.8791,0.0000
5.1530,0.8787,0.0000
5.1540,0.8784,0.0000
5.1550,0.8780,0.0000
5.1560,0.8776,0.0000
5.1570,0.8773,0.0000
5.1580,0.8769,0.0000
5.1590,0.8765,0.0000
5.1600,0.8761,0.0000
5.1610,0.8757,0.0000
5.1620,0.8753,0.0000
5.1630,0.8749,0.0000
5.1640,0.8745,0.0000
5.1650,0.8741,0.0000
5.1660,0.8737,0.0000
5.1670,0.8733,0.0000
5.1680,0.8729,0.0000
5.1690,0.8724,0.0000
5.1700,0.8720,0.0000
5.1710,0.8716,0.0000
5.1720,0.8712,0.0000
5.1730,0.8707,0.0000
5.1740,0.8703,0.0000
5.1750,0.8698,0.0000
5.1760,0.8694,0.0000
5.1770,0.8689,0.0000
5.1780,0.8685,0.0000
5.1790,0.8680,0.0000
5.1800,0.8676,0.0000
5.1810,0.8671,0.0000
5.1820,0.8667,0.0000
5.1830,0.8662,0.0000
5.1840,0.8657,0.0000
5.1850,0.8652,0.0000
5.1860,0.8648,0.0000
5.1870,0.8643,0.0000
5.1880,0.8638,0.0000
5.1890,0.8633,0.0000
5.1900,0.8628,0.0000
5.1910,0.8623,0.0000
5.1920,0.8619,0.0000
5.1930,0.8614,0.0000
5.1940,0.8609,0.0000
5.1950,0.8604,0.0000
5.1960,0.8599,0.0000
5.1970,0.8593,0.0000
5.1980,0.8588,0.0000
5.1990,0.8583,0.0000
5.2000,0.8578,0.0000
5.2010,0.8573,0.0000
5.2020,0.8568,0.0000
5.2030,0.8563,0.0000
5.2040,0.8557,0.0000
5.2050,0.8552,0.0000
5.2060,0.8547,0.0000
5.2070,0.8542,0.0000
5.2080,0.8536,0.0000
5.2090,0.8531,0.0000
5.2100,0.8526,0.0000
5.2110,0.8520,0.0000
5.2120,0.8515,0.0000
5.2130,0.8509,0.0000
5.2140,0.8504,0.0000
5.2150,0.8499,0.0000
5.2160,0.8493,0.0000
5.2170,0.8488,0.0000
5.2180,0.8482,0.0000
5.2190,0.8477,0.0000
5.2200,0.8471,0.0000
5.2210,0.8466,0.0000
5.2220,0.8460,0.0000
5.2230,0.8455,0.0000
5.2240,0.8449,0.0000
5.2250,0.8444,0.0000
5.2260,0.8438,0.0000
5.2270,0.8432,0.0000
5.2280,0.8427,0.0000
5.2290,0.8421,0.0000
5.2300,0.8416,0.0000
5.2310,0.8410,0.0000
5.2320,0.8404,0.0000
5.2330,0.8399,0.0000
5.2340,0.8393,0.0000
5.2350,0.8388,0.0000
5.2360,0.8382,0.0000
5.2370,0.8376,0.0000
5.2380,0.8371,0.0000
5.2390,0.8365,0.0000
5.2400,0.8360,0.0000
5.2410,0.8354,0.0000
5.2420,0.8348,0.0000
5.2430,0.8343,0.0000
5.2440,0.8337,0.0000
5.2450,0.8331,0.0000
5.2460,0.8326,0.0000
5.2470,0.8320,0.0000
5.2480,0.8315,0.0000
5.2490,0.8309,0.0000
5.2500,0.8303,0.0000
