# wavelength (microns), QE
2.2500,0.7802
2.2510,0.7802
2.2520,0.7802
2.2530,0.7802
2.2540,0.7802
2.2550,0.7802
2.2560,0.7801
2.2570,0.7801
2.2580,0.7801
2.2590,0.7801
2.2600,0.7801
2.2610,0.7801
2.2620,0.7801
2.2630,0.7801
2.2640,0.7801
2.2650,0.7801
2.2660,0.7801
2.2670,0.7801
2.2680,0.7801
2.2690,0.7801
2.2700,0.7801
2.2710,0.7801
2.2720,0.7801
2.2730,0.7801
2.2740,0.7801
2.2750,0.7801
2.2760,0.7801
2.2770,0.7801
2.2780,0.7801
2.2790,0.7801
2.2800,0.7801
2.2810,0.7801
2.2820,0.7801
2.2830,0.7801
2.2840,0.7801
2.2850,0.7801
2.2860,0.7801
2.2870,0.7801
2.2880,0.7801
2.2890,0.7801
2.2900,0.7801
2.2910,0.7801
2.2920,0.7801
2.2930,0.7801
2.2940,0.7801
2.2950,0.7801
2.2960,0.7801
2.2970,0.7801
2.2980,0.7801
2.2990,0.7801
2.3000,0.7801
2.3010,0.7801
2.3020,0.7801
2.3030,0.7801
2.3040,0.7801
2.3050,0.7801
2.3060,0.7801
2.3070,0.7801
2.3080,0.7801
2.3090,0.7801
2.3100,0.7801
2.3110,0.7801
2.3120,0.7801
2.3130,0.7801
2.3140,0.7802
2.3150,0.7802
2.3160,0.7802
2.3170,0.7802
2.3180,0.7802
2.3190,0.7802
2.3200,0.7802
2.3210,0.7802
2.3220,0.7802
2.3230,0.7802
2.3240,0.7802
2.3250,0.7802
2.3260,0.7802
2.3270,0.7803
2.3280,0.7803
2.3290,0.7803
2.3300,0.7803
2.3310,0.7803
2.3320,0.7803
2.3330,0.7803
2.3340,0.7803
2.3350,0.7803
2.3360,0.7804
2.3370,0.7804
2.3380,0.7804
2.3390,0.7804
2.3400,0.7804
2.3410,0.7804
2.3420,0.7804
2.3430,0.7804
2.3440,0.7805
2.3450,0.7805
2.3460,0.7805
2.3470,0.7805
2.3480,0.7805
2.3490,0.7805
2.3500,0.7805
2.3510,0.7805
2.3520,0.7806
2.3530,0.7806
2.3540,0.7806
2.3550,0.7806
2.3560,0.7806
2.3570,0.7806
2.3580,0.7807
2.3590,0.7807
2.3600,0.7807
2.3610,0.7807
2.3620,0.7807
2.3630,0.7807
2.3640,0.7808
2.3650,0.7808
2.3660,0.7808
2.3670,0.7808
2.3680,0.7808
2.3690,0.7808
2.3700,0.7809
2.3710,0.7809
2.3720,0.7809
2.3730,0.7809
2.3740,0.7809
2.3750,0.7810
2.3760,0.7810
2.3770,0.7810
2.3780,0.7810
2.3790,0.7810
2.3800,0.7811
2.3810,0.7811
2.3820,0.7811
2.3830,0.7811
2.3840,0.7811
2.3850,0.7812
2.3860,0.7812
2.3870,0.7812
2.3880,0.7812
2.3890,0.7813
2.3900,0.7813
2.3910,0.7813
2.3920,0.7813
2.3930,0.7814
2.3940,0.7814
2.3950,0.7814
2.3960,0.7814
2.3970,0.7814
2.3980,0.7815
2.3990,0.7815
2.4000,0.7815
2.4010,0.7815
2.4020,0.7816
2.4030,0.7816
2.4040,0.7816
2.4050,0.7816
2.4060,0.7817
2.4070,0.7817
2.4080,0.7817
2.4090,0.7818
2.4100,0.7818
2.4110,0.7818
2.4120,0.7818
2.4130,0.7819
2.4140,0.7819
2.4150,0.7819
2.4160,0.7819
2.4170,0.7820
2.4180,0.7820
2.4190,0.7820
2.4200,0.7821
2.4210,0.7821
2.4220,0.7821
2.4230,0.7821
2.4240,0.7822
2.4250,0.7822
2.4260,0.7822
2.4270,0.7823
2.4280,0.7823
2.4290,0.7823
2.4300,0.7824
2.4310,0.7824
2.4320,0.7824
2.4330,0.7824
2.4340,0.7825
2.4350,0.7825
2.4360,0.7825
2.4370,0.7826
2.4380,0.7826
2.4390,0.7826
2.4400,0.7827
2.4410,0.7827
2.4420,0.7827
2.4430,0.7828
2.4440,0.7828
2.4450,0.7828
2.4460,0.7829
2.4470,0.7829
2.4480,0.7829
2.4490,0.7830
2.4500,0.7830
2.4510,0.7830
2.4520,0.7831
2.4530,0.7831
2.4540,0.7831
2.4550,0.7832
2.4560,0.7832
2.4570,0.7833
2.4580,0.7833
2.4590,0.7833
2.4600,0.7834
2.4610,0.7834
2.4620,0.7834
2.4630,0.7835
2.4640,0.7835
2.4650,0.7835
2.4660,0.7836
2.4670,0.7836
2.4680,0.7837
2.4690,0.7837
2.4700,0.7837
2.4710,0.7838
2.4720,0.7838
2.4730,0.7838
2.4740,0.7839
2.4750,0.7839
2.4760,0.7840
2.4770,0.7840
2.4780,0.7840
2.4790,0.7841
2.4800,0.7841
2.4810,0.7842
2.4820,0.7842
2.4830,0.7842
2.4840,0.7843
2.4850,0.7843
2.4860,0.7844
2.4870,0.7844
2.4880,0.7844
2.4890,0.7845
2.4900,0.7845
2.4910,0.7846
2.4920,0.7846
2.4930,0.7847
2.4940,0.7847
2.4950,0.7847
2.4960,0.7848
2.4970,0.7848
2.4980,0.7849
2.4990,0.7849
2.5000,0.7850
2.5010,0.7850
2.5020,0.7850
2.5030,0.7851
2.5040,0.7851
2.5050,0.7852
2.5060,0.7852
2.5070,0.7853
2.5080,0.7853
2.5090,0.7854
2.5100,0.7854
2.5110,0.7854
2.5120,0.7855
2.5130,0.7855
2.5140,0.7856
2.5150,0.7856
2.5160,0.7857
2.5170,0.7857
2.5180,0.7858
2.5190,0.7858
2.5200,0.7859
2.5210,0.7859
2.5220,0.7860
2.5230,0.7860
2.5240,0.7860
2.5250,0.7861
2.5260,0.7861
2.5270,0.7862
2.5280,0.7862
2.5290,0.7863
2.5300,0.7863
2.5310,0.7864
2.5320,0.7864
2.5330,0.7865
2.5340,0.7865
2.5350,0.7866
2.5360,0.7866
2.5370,0.7867
2.5380,0.7867
2.5390,0.7868
2.5400,0.7868
2.5410,0.7869
2.5420,0.7869
2.5430,0.7870
2.5440,0.7870
2.5450,0.7871
2.5460,0.7871
2.5470,0.7872
2.5480,0.7872
2.5490,0.7873
2.5500,0.7873
2.5510,0.7874
2.5520,0.7874
2.5530,0.7875
2.5540,0.7875
2.5550,0.7876
2.5560,0.7876
2.5570,0.7877
2.5580,0.7878
2.5590,0.7878
2.5600,0.7879
2.5610,0.7879
2.5620,0.7880
2.5630,0.7880
2.5640,0.7881
2.5650,0.7881
2.5660,0.7882
2.5670,0.7882
2.5680,0.7883
2.5690,0.7883
2.5700,0.7884
2.5710,0.7885
2.5720,0.7885
2.5730,0.7886
2.5740,0.7886
2.5750,0.7887
2.5760,0.7887
2.5770,0.7888
2.5780,0.7888
2.5790,0.7889
2.5800,0.7890
2.5810,0.7890
2.5820,0.7891
2.5830,0.7891
2.5840,0.7892
2.5850,0.7892
2.5860,0.7893
2.5870,0.7894
2.5880,0.7894
2.5890,0.7895
2.5900,0.7895
2.5910,0.7896
2.5920,0.7896
2.5930,0.7897
2.5940,0.7898
2.5950,0.7898
2.5960,0.7899
2.5970,0.7899
2.5980,0.7900
2.5990,0.7901
2.6000,0.7901
2.6010,0.7902
2.6020,0.7902
2.6030,0.7903
2.6040,0.7904
2.6050,0.7904
2.6060,0.7905
2.6070,0.7905
2.6080,0.7906
2.6090,0.7907
2.6100,0.7907
2.6110,0.7908
2.6120,0.7908
2.6130,0.7909
2.6140,0.7910
2.6150,0.7910
2.6160,0.7911
2.6170,0.7911
2.6180,0.7912
2.6190,0.7913
2.6200,0.7913
2.6210,0.7914
2.6220,0.7914
2.6230,0.7915
2.6240,0.7916
2.6250,0.7916
2.6260,0.7917
2.6270,0.7918
2.6280,0.7918
2.6290,0.7919
2.6300,0.7920
2.6310,0.7920
2.6320,0.7921
2.6330,0.7921
2.6340,0.7922
2.6350,0.7923
2.6360,0.7923
2.6370,0.7924
2.6380,0.7925
2.6390,0.7925
2.6400,0.7926
2.6410,0.7927
2.6420,0.7927
2.6430,0.7928
2.6440,0.7929
2.6450,0.7929
2.6460,0.7930
2.6470,0.7931
2.6480,0.7931
2.6490,0.7932
2.6500,0.7932
2.6510,0.7933
2.6520,0.7934
2.6530,0.7934
2.6540,0.7935
2.6550,0.7936
2.6560,0.7936
2.6570,0.7937
2.6580,0.7938
2.6590,0.7939
2.6600,0.7939
2.6610,0.7940
2.6620,0.7941
2.6630,0.7941
2.6640,0.7942
2.6650,0.7943
2.6660,0.7943
2.6670,0.7944
2.6680,0.7945
2.6690,0.7945
2.6700,0.7946
2.6710,0.7947
2.6720,0.7947
2.6730,0.7948
2.6740,0.7949
2.6750,0.7949
2.6760,0.7950
2.6770,0.7951
2.6780,0.7952
2.6790,0.7952
2.6800,0.7953
2.6810,0.7954
2.6820,0.7954
2.6830,0.7955
2.6840,0.7956
2.6850,0.7956
2.6860,0.7957
2.6870,0.7958
2.6880,0.7959
2.6890,0.7959
2.6900,0.7960
2.6910,0.7961
2.6920,0.7961
2.6930,0.7962
2.6940,0.7963
2.6950,0.7964
2.6960,0.7964
2.6970,0.7965
2.6980,0.7966
2.6990,0.7966
2.7000,0.7967
2.7010,0.7968
2.7020,0.7969
2.7030,0.7969
2.7040,0.7970
2.7050,0.7971
2.7060,0.7972
2.7070,0.7972
2.7080,0.7973
2.7090,0.7974
2.7100,0.7974
2.7110,0.7975
2.7120,0.7976
2.7130,0.7977
2.7140,0.7977
2.7150,0.7978
2.7160,0.7979
2.7170,0.7980
2.7180,0.7980
2.7190,0.7981
2.7200,0.7982
2.7210,0.7983
2.7220,0.7983
2.7230,0.7984
2.7240,0.7985
2.7250,0.7986
2.7260,0.7986
2.7270,0.7987
2.7280,0.7988
2.7290,0.7989
2.7300,0.7989
2.7310,0.7990
2.7320,0.7991
2.7330,0.7992
2.7340,0.7992
2.7350,0.7993
2.7360,0.7994
2.7370,0.7995
2.7380,0.7995
2.7390,0.7996
2.7400,0.7997
2.7410,0.7998
2.7420,0.7999
2.7430,0.7999
2.7440,0.8000
2.7450,0.8001
2.7460,0.8002
2.7470,0.8002
2.7480,0.8003
2.7490,0.8004
2.7500,0.8005
2.7510,0.8006
2.7520,0.8006
2.7530,0.8007
2.7540,0.8008
2.7550,0.8009
2.7560,0.8009
2.7570,0.8010
2.7580,0.8011
2.7590,0.8012
2.7600,0.8013
2.7610,0.8013
2.7620,0.8014
2.7630,0.8015
2.7640,0.8016
2.7650,0.8017
2.7660,0.8017
2.7670,0.8018
2.7680,0.8019
2.7690,0.8020
2.7700,0.8021
2.7710,0.8021
2.7720,0.8022
2.7730,0.8023
2.7740,0.8024
2.7750,0.8025
2.7760,0.8025
2.7770,0.8026
2.7780,0.8027
2.7790,0.8028
2.7800,0.8029
2.7810,0.8029
2.7820,0.8030
2.7830,0.8031
2.7840,0.8032
2.7850,0.8033
2.7860,0.8033
2.7870,0.8034
2.7880,0.8035
2.7890,0.8036
2.7900,0.8037
2.7910,0.8038
2.7920,0.8038
2.7930,0.8039
2.7940,0.8040
2.7950,0.8041
2.7960,0.8042
2.7970,0.8042
2.7980,0.8043
2.7990,0.8044
2.8000,0.8045
2.8010,0.8046
2.8020,0.8047
2.8030,0.8047
2.8040,0.8048
2.8050,0.8049
2.8060,0.8050
2.8070,0.8051
2.8080,0.8052
2.8090,0.8052
2.8100,0.8053
2.8110,0.8054
2.8120,0.8055
2.8130,0.8056
2.8140,0.8057
2.8150,0.8057
2.8160,0.8058
2.8170,0.8059
2.8180,0.8060
2.8190,0.8061
2.8200,0.8062
2.8210,0.8063
2.8220,0.8063
2.8230,0.8064
2.8240,0.8065
2.8250,0.8066
2.8260,0.8067
2.8270,0.8068
2.8280,0.8068
2.8290,0.8069
2.8300,0.8070
2.8310,0.8071
2.8320,0.8072
2.8330,0.8073
2.8340,0.8074
2.8350,0.8074
2.8360,0.8075
2.8370,0.8076
2.8380,0.8077
2.8390,0.8078
2.8400,0.8079
2.8410,0.8080
2.8420,0.8081
2.8430,0.8081
2.8440,0.8082
2.8450,0.8083
2.8460,0.8084
2.8470,0.8085
2.8480,0.8086
2.8490,0.8087
2.8500,0.8087
2.8510,0.8088
2.8520,0.8089
2.8530,0.8090
2.8540,0.8091
2.8550,0.8092
2.8560,0.8093
2.8570,0.8094
2.8580,0.8094
2.8590,0.8095
2.8600,0.8096
2.8610,0.8097
2.8620,0.8098
2.8630,0.8099
2.8640,0.8100
2.8650,0.8101
2.8660,0.8101
2.8670,0.8102
2.8680,0.8103
2.8690,0.8104
2.8700,0.8105
2.8710,0.8106
2.8720,0.8107
2.8730,0.8108
2.8740,0.8109
2.8750,0.8109
2.8760,0.8110
2.8770,0.8111
2.8780,0.8112
2.8790,0.8113
2.8800,0.8114
2.8810,0.8115
2.8820,0.8116
2.8830,0.8117
2.8840,0.8117
2.8850,0.8118
2.8860,0.8119
2.8870,0.8120
2.8880,0.8121
2.8890,0.8122
2.8900,0.8123
2.8910,0.8124
2.8920,0.8125
2.8930,0.8126
2.8940,0.8126
2.8950,0.8127
2.8960,0.8128
2.8970,0.8129
2.8980,0.8130
2.8990,0.8131
2.9000,0.8132
2.9010,0.8133
2.9020,0.8134
2.9030,0.8135
2.9040,0.8135
2.9050,0.8136
2.9060,0.8137
2.9070,0.8138
2.9080,0.8139
2.9090,0.8140
2.9100,0.8141
2.9110,0.8142
2.9120,0.8143
2.9130,0.8144
2.9140,0.8145
2.9150,0.8145
2.9160,0.8146
2.9170,0.8147
2.9180,0.8148
2.9190,0.8149
2.9200,0.8150
2.9210,0.8151
2.9220,0.8152
2.9230,0.8153
2.9240,0.8154
2.9250,0.8155
2.9260,0.8156
2.9270,0.8156
2.9280,0.8157
2.9290,0.8158
2.9300,0.8159
2.9310,0.8160
2.9320,0.8161
2.9330,0.8162
2.9340,0.8163
2.9350,0.8164
2.9360,0.8165
2.9370,0.8166
2.9380,0.8167
2.9390,0.8168
2.9400,0.8169
2.9410,0.8169
2.9420,0.8170
2.9430,0.8171
2.9440,0.8172
2.9450,0.8173
2.9460,0.8174
2.9470,0.8175
2.9480,0.8176
2.9490,0.8177
2.9500,0.8178
2.9510,0.8179
2.9520,0.8180
2.9530,0.8181
2.9540,0.8182
2.9550,0.8182
2.9560,0.8183
2.9570,0.8184
2.9580,0.8185
2.9590,0.8186
2.9600,0.8187
2.9610,0.8188
2.9620,0.8189
2.9630,0.8190
2.9640,0.8191
2.9650,0.8192
2.9660,0.8193
2.9670,0.8194
2.9680,0.8195
2.9690,0.8196
2.9700,0.8197
2.9710,0.8198
2.9720,0.8198
2.9730,0.8199
2.9740,0.8200
2.9750,0.8201
2.9760,0.8202
2.9770,0.8203
2.9780,0.8204
2.9790,0.8205
2.9800,0.8206
2.9810,0.8207
2.9820,0.8208
2.9830,0.8209
2.9840,0.8210
2.9850,0.8211
2.9860,0.8212
2.9870,0.8213
2.9880,0.8214
2.9890,0.8215
2.9900,0.8216
2.9910,0.8216
2.9920,0.8217
2.9930,0.8218
2.9940,0.8219
2.9950,0.8220
2.9960,0.8221
2.9970,0.8222
2.9980,0.8223
2.9990,0.8224
3.0000,0.8225
3.0010,0.8226
3.0020,0.8227
3.0030,0.8228
3.0040,0.8229
3.0050,0.8230
3.0060,0.8231
3.0070,0.8232
3.0080,0.8233
3.0090,0.8234
3.0100,0.8235
3.0110,0.8236
3.0120,0.8237
3.0130,0.8237
3.0140,0.8238
3.0150,0.8239
3.0160,0.8240
3.0170,0.8241
3.0180,0.8242
3.0190,0.8243
3.0200,0.8244
3.0210,0.8245
3.0220,0.8246
3.0230,0.8247
3.0240,0.8248
3.0250,0.8249
3.0260,0.8250
3.0270,0.8251
3.0280,0.8252
3.0290,0.8253
3.0300,0.8254
3.0310,0.8255
3.0320,0.8256
3.0330,0.8257
3.0340,0.8258
3.0350,0.8259
3.0360,0.8260
3.0370,0.8261
3.0380,0.8262
3.0390,0.8263
3.0400,0.8264
3.0410,0.8264
3.0420,0.8265
3.0430,0.8266
3.0440,0.8267
3.0450,0.8268
3.0460,0.8269
3.0470,0.8270
3.0480,0.8271
3.0490,0.8272
3.0500,0.8273
3.0510,0.8274
3.0520,0.8275
3.0530,0.8276
3.0540,0.8277
3.0550,0.8278
3.0560,0.8279
3.0570,0.8280
3.0580,0.8281
3.0590,0.8282
3.0600,0.8283
3.0610,0.8284
3.0620,0.8285
3.0630,0.8286
3.0640,0.8287
3.0650,0.8288
3.0660,0.8289
3.0670,0.8290
3.0680,0.8291
3.0690,0.8292
3.0700,0.8293
3.0710,0.8294
3.0720,0.8295
3.0730,0.8296
3.0740,0.8297
3.0750,0.8297
3.0760,0.8298
3.0770,0.8299
3.0780,0.8300
3.0790,0.8301
3.0800,0.8302
3.0810,0.8303
3.0820,0.8304
3.0830,0.8305
3.0840,0.8306
3.0850,0.8307
3.0860,0.8308
3.0870,0.8309
3.0880,0.8310
3.0890,0.8311
3.0900,0.8312
3.0910,0.8313
3.0920,0.8314
3.0930,0.8315
3.0940,0.8316
3.0950,0.8317
3.0960,0.8318
3.0970,0.8319
3.0980,0.8320
3.0990,0.8321
3.1000,0.8322
3.1010,0.8323
3.1020,0.8324
3.1030,0.8325
3.1040,0.8326
3.1050,0.8327
3.1060,0.8328
3.1070,0.8329
3.1080,0.8330
3.1090,0.8331
3.1100,0.8332
3.1110,0.8333
3.1120,0.8334
3.1130,0.8335
3.1140,0.8336
3.1150,0.8337
3.1160,0.8338
3.1170,0.8339
3.1180,0.8339
3.1190,0.8340
3.1200,0.8341
3.1210,0.8342
3.1220,0.8343
3.1230,0.8344
3.1240,0.8345
3.1250,0.8346
3.1260,0.8347
3.1270,0.8348
3.1280,0.8349
3.1290,0.8350
3.1300,0.8351
3.1310,0.8352
3.1320,0.8353
3.1330,0.8354
3.1340,0.8355
3.1350,0.8356
3.1360,0.8357
3.1370,0.8358
3.1380,0.8359
3.1390,0.8360
3.1400,0.8361
3.1410,0.8362
3.1420,0.8363
3.1430,0.8364
3.1440,0.8365
3.1450,0.8366
3.1460,0.8367
3.1470,0.8368
3.1480,0.8369
3.1490,0.8370
3.1500,0.8371
3.1510,0.8372
3.1520,0.8373
3.1530,0.8374
3.1540,0.8375
3.1550,0.8376
3.1560,0.8377
3.1570,0.8378
3.1580,0.8379
3.1590,0.8380
3.1600,0.8381
3.1610,0.8382
3.1620,0.8383
3.1630,0.8384
3.1640,0.8384
3.1650,0.8385
3.1660,0.8386
3.1670,0.8387
3.1680,0.8388
3.1690,0.8389
3.1700,0.8390
3.1710,0.8391
3.1720,0.8392
3.1730,0.8393
3.1740,0.8394
3.1750,0.8395
3.1760,0.8396
3.1770,0.8397
3.1780,0.8398
3.1790,0.8399
3.1800,0.8400
3.1810,0.8401
3.1820,0.8402
3.1830,0.8403
3.1840,0.8404
3.1850,0.8405
3.1860,0.8406
3.1870,0.8407
3.1880,0.8408
3.1890,0.8409
3.1900,0.8410
3.1910,0.8411
3.1920,0.8412
3.1930,0.8413
3.1940,0.8414
3.1950,0.8415
3.1960,0.8416
3.1970,0.8417
3.1980,0.8418
3.1990,0.8419
3.2000,0.8420
3.2010,0.8421
3.2020,0.8422
3.2030,0.8422
3.2040,0.8423
3.2050,0.8424
3.2060,0.8425
3.2070,0.8426
3.2080,0.8427
3.2090,0.8428
3.2100,0.8429
3.2110,0.8430
3.2120,0.8431
3.2130,0.8432
3.2140,0.8433
3.2150,0.8434
3.2160,0.8435
3.2170,0.8436
3.2180,0.8437
3.2190,0.8438
3.2200,0.8439
3.2210,0.8440
3.2220,0.8441
3.2230,0.8442
3.2240,0.8443
3.2250,0.8444
3.2260,0.8445
3.2270,0.8446
3.2280,0.8447
3.2290,0.8448
3.2300,0.8449
3.2310,0.8450
3.2320,0.8451
3.2330,0.8452
3.2340,0.8452
3.2350,0.8453
3.2360,0.8454
3.2370,0.8455
3.2380,0.8456
3.2390,0.8457
3.2400,0.8458
3.2410,0.8459
3.2420,0.8460
3.2430,0.8461
3.2440,0.8462
3.2450,0.8463
3.2460,0.8464
3.2470,0.8465
3.2480,0.8466
3.2490,0.8467
3.2500,0.8468
3.2510,0.8469
3.2520,0.8470
3.2530,0.8471
3.2540,0.8472
3.2550,0.8473
3.2560,0.8474
3.2570,0.8475
3.2580,0.8476
3.2590,0.8476
3.2600,0.8477
3.2610,0.8478
3.2620,0.8479
3.2630,0.8480
3.2640,0.8481
3.2650,0.8482
3.2660,0.8483
3.2670,0.8484
3.2680,0.8485
3.2690,0.8486
3.2700,0.8487
3.2710,0.8488
3.2720,0.8489
3.2730,0.8490
3.2740,0.8491
3.2750,0.8492
3.2760,0.8493
3.2770,0.8494
3.2780,0.8495
3.2790,0.8495
3.2800,0.8496
3.2810,0.8497
3.2820,0.8498
3.2830,0.8499
3.2840,0.8500
3.2850,0.8501
3.2860,0.8502
3.2870,0.8503
3.2880,0.8504
3.2890,0.8505
3.2900,0.8506
3.2910,0.8507
3.2920,0.8508
3.2930,0.8509
3.2940,0.8510
3.2950,0.8511
3.2960,0.8512
3.2970,0.8512
3.2980,0.8513
3.2990,0.8514
3.3000,0.8515
3.3010,0.8516
3.3020,0.8517
3.3030,0.8518
3.3040,0.8519
3.3050,0.8520
3.3060,0.8521
3.3070,0.8522
3.3080,0.8523
3.3090,0.8524
3.3100,0.8525
3.3110,0.8526
3.3120,0.8527
3.3130,0.8527
3.3140,0.8528
3.3150,0.8529
3.3160,0.8530
3.3170,0.8531
3.3180,0.8532
3.3190,0.8533
3.3200,0.8534
3.3210,0.8535
3.3220,0.8536
3.3230,0.8537
3.3240,0.8538
3.3250,0.8539
3.3260,0.8539
3.3270,0.8540
3.3280,0.8541
3.3290,0.8542
3.3300,0.8543
3.3310,0.8544
3.3320,0.8545
3.3330,0.8546
3.3340,0.8547
3.3350,0.8548
3.3360,0.8549
3.3370,0.8550
3.3380,0.8551
3.3390,0.8551
3.3400,0.8552
3.3410,0.8553
3.3420,0.8554
3.3430,0.8555
3.3440,0.8556
3.3450,0.8557
3.3460,0.8558
3.3470,0.8559
3.3480,0.8560
3.3490,0.8561
3.3500,0.8562
3.3510,0.8562
3.3520,0.8563
3.3530,0.8564
3.3540,0.8565
3.3550,0.8566
3.3560,0.8567
3.3570,0.8568
3.3580,0.8569
3.3590,0.8570
3.3600,0.8571
3.3610,0.8571
3.3620,0.8572
3.3630,0.8573
3.3640,0.8574
3.3650,0.8575
3.3660,0.8576
3.3670,0.8577
3.3680,0.8578
3.3690,0.8579
3.3700,0.8580
3.3710,0.8580
3.3720,0.8581
3.3730,0.8582
3.3740,0.8583
3.3750,0.8584
3.3760,0.8585
3.3770,0.8586
3.3780,0.8587
3.3790,0.8588
3.3800,0.8588
3.3810,0.8589
3.3820,0.8590
3.3830,0.8591
3.3840,0.8592
3.3850,0.8593
3.3860,0.8594
3.3870,0.8595
3.3880,0.8596
3.3890,0.8596
3.3900,0.8597
3.3910,0.8598
3.3920,0.8599
3.3930,0.8600
3.3940,0.8601
3.3950,0.8602
3.3960,0.8603
3.3970,0.8604
3.3980,0.8604
3.3990,0.8605
3.4000,0.8606
3.4010,0.8607
3.4020,0.8608
3.4030,0.8609
3.4040,0.8610
3.4050,0.8610
3.4060,0.8611
3.4070,0.8612
3.4080,0.8613
3.4090,0.8614
3.4100,0.8615
3.4110,0.8616
3.4120,0.8617
3.4130,0.8617
3.4140,0.8618
3.4150,0.8619
3.4160,0.8620
3.4170,0.8621
3.4180,0.8622
3.4190,0.8623
3.4200,0.8623
3.4210,0.8624
3.4220,0.8625
3.4230,0.8626
3.4240,0.8627
3.4250,0.8628
3.4260,0.8629
3.4270,0.8629
3.4280,0.8630
3.4290,0.8631
3.4300,0.8632
3.4310,0.8633
3.4320,0.8634
3.4330,0.8635
3.4340,0.8635
3.4350,0.8636
3.4360,0.8637
3.4370,0.8638
3.4380,0.8639
3.4390,0.8640
3.4400,0.8640
3.4410,0.8641
3.4420,0.8642
3.4430,0.8643
3.4440,0.8644
3.4450,0.8645
3.4460,0.8645
3.4470,0.8646
3.4480,0.8647
3.4490,0.8648
3.4500,0.8649
3.4510,0.8650
3.4520,0.8650
3.4530,0.8651
3.4540,0.8652
3.4550,0.8653
3.4560,0.8654
3.4570,0.8655
3.4580,0.8655
3.4590,0.8656
3.4600,0.8657
3.4610,0.8658
3.4620,0.8659
3.4630,0.8660
3.4640,0.8660
3.4650,0.8661
3.4660,0.8662
3.4670,0.8663
3.4680,0.8664
3.4690,0.8664
3.4700,0.8665
3.4710,0.8666
3.4720,0.8667
3.4730,0.8668
3.4740,0.8668
3.4750,0.8669
3.4760,0.8670
3.4770,0.8671
3.4780,0.8672
3.4790,0.8672
3.4800,0.8673
3.4810,0.8674
3.4820,0.8675
3.4830,0.8676
3.4840,0.8676
3.4850,0.8677
3.4860,0.8678
3.4870,0.8679
3.4880,0.8680
3.4890,0.8680
3.4900,0.8681
3.4910,0.8682
3.4920,0.8683
3.4930,0.8684
3.4940,0.8684
3.4950,0.8685
3.4960,0.8686
3.4970,0.8687
3.4980,0.8688
3.4990,0.8688
3.5000,0.8689
3.5010,0.8690
3.5020,0.8691
3.5030,0.8691
3.5040,0.8692
3.5050,0.8693
3.5060,0.8694
3.5070,0.8695
3.5080,0.8695
3.5090,0.8696
3.5100,0.8697
3.5110,0.8698
3.5120,0.8698
3.5130,0.8699
3.5140,0.8700
3.5150,0.8701
3.5160,0.8701
3.5170,0.8702
3.5180,0.8703
3.5190,0.8704
3.5200,0.8704
3.5210,0.8705
3.5220,0.8706
3.5230,0.8707
3.5240,0.8707
3.5250,0.8708
3.5260,0.8709
3.5270,0.8710
3.5280,0.8710
3.5290,0.8711
3.5300,0.8712
3.5310,0.8713
3.5320,0.8713
3.5330,0.8714
3.5340,0.8715
3.5350,0.8716
3.5360,0.8716
3.5370,0.8717
3.5380,0.8718
3.5390,0.8719
3.5400,0.8719
3.5410,0.8720
3.5420,0.8721
3.5430,0.8722
3.5440,0.8722
3.5450,0.8723
3.5460,0.8724
3.5470,0.8724
3.5480,0.8725
3.5490,0.8726
3.5500,0.8727
3.5510,0.8727
3.5520,0.8728
3.5530,0.8729
3.5540,0.8729
3.5550,0.8730
3.5560,0.8731
3.5570,0.8732
3.5580,0.8732
3.5590,0.8733
3.5600,0.8734
3.5610,0.8734
3.5620,0.8735
3.5630,0.8736
3.5640,0.8737
3.5650,0.8737
3.5660,0.8738
3.5670,0.8739
3.5680,0.8739
3.5690,0.8740
3.5700,0.8741
3.5710,0.8741
3.5720,0.8742
3.5730,0.8743
3.5740,0.8744
3.5750,0.8744
3.5760,0.8745
3.5770,0.8746
3.5780,0.8746
3.5790,0.8747
3.5800,0.8748
3.5810,0.8748
3.5820,0.8749
3.5830,0.8750
3.5840,0.8750
3.5850,0.8751
3.5860,0.8752
3.5870,0.8752
3.5880,0.8753
3.5890,0.8754
3.5900,0.8754
3.5910,0.8755
3.5920,0.8756
3.5930,0.8756
3.5940,0.8757
3.5950,0.8758
3.5960,0.8758
3.5970,0.8759
3.5980,0.8760
3.5990,0.8760
3.6000,0.8761
3.6010,0.8762
3.6020,0.8762
3.6030,0.8763
3.6040,0.8764
3.6050,0.8764
3.6060,0.8765
3.6070,0.8766
3.6080,0.8766
3.6090,0.8767
3.6100,0.8767
3.6110,0.8768
3.6120,0.8769
3.6130,0.8769
3.6140,0.8770
3.6150,0.8771
3.6160,0.8771
3.6170,0.8772
3.6180,0.8773
3.6190,0.8773
3.6200,0.8774
3.6210,0.8774
3.6220,0.8775
3.6230,0.8776
3.6240,0.8776
3.6250,0.8777
3.6260,0.8777
3.6270,0.8778
3.6280,0.8779
3.6290,0.8779
3.6300,0.8780
3.6310,0.8781
3.6320,0.8781
3.6330,0.8782
3.6340,0.8782
3.6350,0.8783
3.6360,0.8784
3.6370,0.8784
3.6380,0.8785
3.6390,0.8785
3.6400,0.8786
3.6410,0.8787
3.6420,0.8787
3.6430,0.8788
3.6440,0.8788
3.6450,0.8789
3.6460,0.8789
3.6470,0.8790
3.6480,0.8791
3.6490,0.8791
3.6500,0.8792
3.6510,0.8792
3.6520,0.8793
3.6530,0.8794
3.6540,0.8794
3.6550,0.8795
3.6560,0.8795
3.6570,0.8796
3.6580,0.8796
3.6590,0.8797
3.6600,0.8797
3.6610,0.8798
3.6620,0.8799
3.6630,0.8799
3.6640,0.8800
3.6650,0.8800
3.6660,0.8801
3.6670,0.8801
3.6680,0.8802
3.6690,0.8802
3.6700,0.8803
3.6710,0.8804
3.6720,0.8804
3.6730,0.8805
3.6740,0.8805
3.6750,0.8806
3.6760,0.8806
3.6770,0.8807
3.6780,0.8807
3.6790,0.8808
3.6800,0.8808
3.6810,0.8809
3.6820,0.8809
3.6830,0.8810
3.6840,0.8810
3.6850,0.8811
3.6860,0.8812
3.6870,0.8812
3.6880,0.8813
3.6890,0.8813
3.6900,0.8814
3.6910,0.8814
3.6920,0.8815
3.6930,0.8815
3.6940,0.8816
3.6950,0.8816
3.6960,0.8817
3.6970,0.8817
3.6980,0.8818
3.6990,0.8818
3.7000,0.8819
3.7010,0.8819
3.7020,0.8820
3.7030,0.8820
3.7040,0.8821
3.7050,0.8821
3.7060,0.8822
3.7070,0.8822
3.7080,0.8822
3.7090,0.8823
3.7100,0.8823
3.7110,0.8824
3.7120,0.8824
3.7130,0.8825
3.7140,0.8825
3.7150,0.8826
3.7160,0.8826
3.7170,0.8827
3.7180,0.8827
3.7190,0.8828
3.7200,0.8828
3.7210,0.8829
3.7220,0.8829
3.7230,0.8829
3.7240,0.8830
3.7250,0.8830
3.7260,0.8831
3.7270,0.8831
3.7280,0.8832
3.7290,0.8832
3.7300,0.8833
3.7310,0.8833
3.7320,0.8833
3.7330,0.8834
3.7340,0.8834
3.7350,0.8835
3.7360,0.8835
3.7370,0.8836
3.7380,0.8836
3.7390,0.8836
3.7400,0.8837
3.7410,0.8837
3.7420,0.8838
3.7430,0.8838
3.7440,0.8838
3.7450,0.8839
3.7460,0.8839
3.7470,0.8840
3.7480,0.8840
3.7490,0.8841
3.7500,0.8841
3.7510,0.8841
3.7520,0.8842
3.7530,0.8842
3.7540,0.8842
3.7550,0.8843
3.7560,0.8843
3.7570,0.8844
3.7580,0.8844
3.7590,0.8844
3.7600,0.8845
3.7610,0.8845
3.7620,0.8846
3.7630,0.8846
3.7640,0.8846
3.7650,0.8847
3.7660,0.8847
3.7670,0.8847
3.7680,0.8848
3.7690,0.8848
3.7700,0.8848
3.7710,0.8849
3.7720,0.8849
3.7730,0.8850
3.7740,0.8850
3.7750,0.8850
3.7760,0.8851
3.7770,0.8851
3.7780,0.8851
3.7790,0.8852
3.7800,0.8852
3.7810,0.8852
3.7820,0.8853
3.7830,0.8853
3.7840,0.8853
3.7850,0.8854
3.7860,0.8854
3.7870,0.8854
3.7880,0.8855
3.7890,0.8855
3.7900,0.8855
3.7910,0.8856
3.7920,0.8856
3.7930,0.8856
3.7940,0.8856
3.7950,0.8857
3.7960,0.8857
3.7970,0.8857
3.7980,0.8858
3.7990,0.8858
3.8000,0.8858
3.8010,0.8859
3.8020,0.8859
3.8030,0.8859
3.8040,0.8859
3.8050,0.8860
3.8060,0.8860
3.8070,0.8860
3.8080,0.8861
3.8090,0.8861
3.8100,0.8861
3.8110,0.8861
3.8120,0.8862
3.8130,0.8862
3.8140,0.8862
3.8150,0.8862
3.8160,0.8863
3.8170,0.8863
3.8180,0.8863
3.8190,0.8864
3.8200,0.8864
3.8210,0.8864
3.8220,0.8864
3.8230,0.8865
3.8240,0.8865
3.8250,0.8865
3.8260,0.8865
3.8270,0.8865
3.8280,0.8866
3.8290,0.8866
3.8300,0.8866
3.8310,0.8866
3.8320,0.8867
3.8330,0.8867
3.8340,0.8867
3.8350,0.8867
3.8360,0.8868
3.8370,0.8868
3.8380,0.8868
3.8390,0.8868
3.8400,0.8868
3.8410,0.8869
3.8420,0.8869
3.8430,0.8869
3.8440,0.8869
3.8450,0.8869
3.8460,0.8870
3.8470,0.8870
3.8480,0.8870
3.8490,0.8870
3.8500,0.8870
3.8510,0.8870
3.8520,0.8871
3.8530,0.8871
3.8540,0.8871
3.8550,0.8871
3.8560,0.8871
3.8570,0.8872
3.8580,0.8872
3.8590,0.8872
3.8600,0.8872
3.8610,0.8872
3.8620,0.8872
3.8630,0.8872
3.8640,0.8873
3.8650,0.8873
3.8660,0.8873
3.8670,0.8873
3.8680,0.8873
3.8690,0.8873
3.8700,0.8873
3.8710,0.8874
3.8720,0.8874
3.8730,0.8874
3.8740,0.8874
3.8750,0.8874
3.8760,0.8874
3.8770,0.8874
3.8780,0.8874
3.8790,0.8875
3.8800,0.8875
3.8810,0.8875
3.8820,0.8875
3.8830,0.8875
3.8840,0.8875
3.8850,0.8875
3.8860,0.8875
3.8870,0.8875
3.8880,0.8876
3.8890,0.8876
3.8900,0.8876
3.8910,0.8876
3.8920,0.8876
3.8930,0.8876
3.8940,0.8876
3.8950,0.8876
3.8960,0.8876
3.8970,0.8876
3.8980,0.8876
3.8990,0.8876
3.9000,0.8876
3.9010,0.8876
3.9020,0.8877
3.9030,0.8877
3.9040,0.8877
3.9050,0.8877
3.9060,0.8877
3.9070,0.8877
3.9080,0.8877
3.9090,0.8877
3.9100,0.8877
3.9110,0.8877
3.9120,0.8877
3.9130,0.8877
3.9140,0.8877
3.9150,0.8877
3.9160,0.8877
3.9170,0.8877
3.9180,0.8877
3.9190,0.8877
3.9200,0.8877
3.9210,0.8877
3.9220,0.8877
3.9230,0.8877
3.9240,0.8877
3.9250,0.8877
3.9260,0.8877
3.9270,0.8877
3.9280,0.8877
3.9290,0.8877
3.9300,0.8877
3.9310,0.8877
3.9320,0.8877
3.9330,0.8877
3.9340,0.8877
3.9350,0.8877
3.9360,0.8877
3.9370,0.8877
3.9380,0.8877
3.9390,0.8877
3.9400,0.8877
3.9410,0.8877
3.9420,0.8877
3.9430,0.8877
3.9440,0.8876
3.9450,0.8876
3.9460,0.8876
3.9470,0.8876
3.9480,0.8876
3.9490,0.8876
3.9500,0.8876
3.9510,0.8876
3.9520,0.8876
3.9530,0.8876
3.9540,0.8876
3.9550,0.8876
3.9560,0.8876
3.9570,0.8876
3.9580,0.8875
3.9590,0.8875
3.9600,0.8875
3.9610,0.8875
3.9620,0.8875
3.9630,0.8875
3.9640,0.8875
3.9650,0.8875
3.9660,0.8875
3.9670,0.8874
3.9680,0.8874
3.9690,0.8874
3.9700,0.8874
3.9710,0.8874
3.9720,0.8874
3.9730,0.8874
3.9740,0.8874
3.9750,0.8873
3.9760,0.8873
3.9770,0.8873
3.9780,0.8873
3.9790,0.8873
3.9800,0.8873
3.9810,0.8872
3.9820,0.8872
3.9830,0.8872
3.9840,0.8872
3.9850,0.8872
3.9860,0.8872
3.9870,0.8871
3.9880,0.8871
3.9890,0.8871
3.9900,0.8871
3.9910,0.8871
3.9920,0.8870
3.9930,0.8870
3.9940,0.8870
3.9950,0.8870
3.9960,0.8870
3.9970,0.8869
3.9980,0.8869
3.9990,0.8869
4.0000,0.8869
4.0010,0.8869
4.0020,0.8868
4.0030,0.8868
4.0040,0.8868
4.0050,0.8868
4.0060,0.8867
4.0070,0.8867
4.0080,0.8867
4.0090,0.8867
4.0100,0.8867
4.0110,0.8866
4.0120,0.8866
4.0130,0.8866
4.0140,0.8865
4.0150,0.8865
4.0160,0.8865
4.0170,0.8865
4.0180,0.8864
4.0190,0.8864
4.0200,0.8864
4.0210,0.8864
4.0220,0.8863
4.0230,0.8863
4.0240,0.8863
4.0250,0.8862
4.0260,0.8862
4.0270,0.8862
4.0280,0.8862
4.0290,0.8861
4.0300,0.8861
4.0310,0.8861
4.0320,0.8860
4.0330,0.8860
4.0340,0.8860
4.0350,0.8859
4.0360,0.8859
4.0370,0.8859
4.0380,0.8858
4.0390,0.8858
4.0400,0.8858
4.0410,0.8857
4.0420,0.8857
4.0430,0.8857
4.0440,0.8856
4.0450,0.8856
4.0460,0.8856
4.0470,0.8855
4.0480,0.8855
4.0490,0.8854
4.0500,0.8854
4.0510,0.8854
4.0520,0.8853
4.0530,0.8853
4.0540,0.8853
4.0550,0.8852
4.0560,0.8852
4.0570,0.8851
4.0580,0.8851
4.0590,0.8851
4.0600,0.8850
4.0610,0.8850
4.0620,0.8849
4.0630,0.8849
4.0640,0.8849
4.0650,0.8848
4.0660,0.8848
4.0670,0.8847
4.0680,0.8847
4.0690,0.8846
4.0700,0.8846
4.0710,0.8846
4.0720,0.8845
4.0730,0.8845
4.0740,0.8844
4.0750,0.8844
4.0760,0.8843
4.0770,0.8843
4.0780,0.8842
4.0790,0.8842
4.0800,0.8841
4.0810,0.8841
4.0820,0.8840
4.0830,0.8840
4.0840,0.8839
4.0850,0.8839
4.0860,0.8838
4.0870,0.8838
4.0880,0.8837
4.0890,0.8837
4.0900,0.8836
4.0910,0.8836
4.0920,0.8835
4.0930,0.8835
4.0940,0.8834
4.0950,0.8834
4.0960,0.8833
4.0970,0.8833
4.0980,0.8832
4.0990,0.8832
4.1000,0.8831
4.1010,0.8831
4.1020,0.8830
4.1030,0.8830
4.1040,0.8829
4.1050,0.8828
4.1060,0.8828
4.1070,0.8827
4.1080,0.8827
4.1090,0.8826
4.1100,0.8826
4.1110,0.8825
4.1120,0.8824
4.1130,0.8824
4.1140,0.8823
4.1150,0.8823
4.1160,0.8822
4.1170,0.8822
4.1180,0.8821
4.1190,0.8820
4.1200,0.8820
4.1210,0.8819
4.1220,0.8818
4.1230,0.8818
4.1240,0.8817
4.1250,0.8817
4.1260,0.8816
4.1270,0.8815
4.1280,0.8815
4.1290,0.8814
4.1300,0.8813
4.1310,0.8813
4.1320,0.8812
4.1330,0.8811
4.1340,0.8811
4.1350,0.8810
4.1360,0.8809
4.1370,0.8809
4.1380,0.8808
4.1390,0.8807
4.1400,0.8807
4.1410,0.8806
4.1420,0.8805
4.1430,0.8805
4.1440,0.8804
4.1450,0.8803
4.1460,0.8803
4.1470,0.8802
4.1480,0.8801
4.1490,0.8800
4.1500,0.8800
4.1510,0.8799
4.1520,0.8798
4.1530,0.8798
4.1540,0.8797
4.1550,0.8796
4.1560,0.8795
4.1570,0.8795
4.1580,0.8794
4.1590,0.8793
4.1600,0.8792
4.1610,0.8792
4.1620,0.8791
4.1630,0.8790
4.1640,0.8789
4.1650,0.8788
4.1660,0.8788
4.1670,0.8787
4.1680,0.8786
4.1690,0.8785
4.1700,0.8785
4.1710,0.8784
4.1720,0.8783
4.1730,0.8782
4.1740,0.8781
4.1750,0.8780
4.1760,0.8780
4.1770,0.8779
4.1780,0.8778
4.1790,0.8777
4.1800,0.8776
4.1810,0.8776
4.1820,0.8775
4.1830,0.8774
4.1840,0.8773
4.1850,0.8772
4.1860,0.8771
4.1870,0.8770
4.1880,0.8770
4.1890,0.8769
4.1900,0.8768
4.1910,0.8767
4.1920,0.8766
4.1930,0.8765
4.1940,0.8764
4.1950,0.8763
4.1960,0.8762
4.1970,0.8762
4.1980,0.8761
4.1990,0.8760
4.2000,0.8759
4.2010,0.8758
4.2020,0.8757
4.2030,0.8756
4.2040,0.8755
4.2050,0.8754
4.2060,0.8753
4.2070,0.8752
4.2080,0.8751
4.2090,0.8750
4.2100,0.8750
4.2110,0.8749
4.2120,0.8748
4.2130,0.8747
4.2140,0.8746
4.2150,0.8745
4.2160,0.8744
4.2170,0.8743
4.2180,0.8742
4.2190,0.8741
4.2200,0.8740
4.2210,0.8739
4.2220,0.8738
4.2230,0.8737
4.2240,0.8736
4.2250,0.8735
4.2260,0.8734
4.2270,0.8733
4.2280,0.8732
4.2290,0.8731
4.2300,0.8730
4.2310,0.8729
4.2320,0.8728
4.2330,0.8726
4.2340,0.8725
4.2350,0.8724
4.2360,0.8723
4.2370,0.8722
4.2380,0.8721
4.2390,0.8720
4.2400,0.8719
4.2410,0.8718
4.2420,0.8717
4.2430,0.8716
4.2440,0.8715
4.2450,0.8714
4.2460,0.8712
4.2470,0.8711
4.2480,0.8710
4.2490,0.8709
4.2500,0.8708
4.2510,0.8707
4.2520,0.8706
4.2530,0.8705
4.2540,0.8704
4.2550,0.8702
4.2560,0.8701
4.2570,0.8700
4.2580,0.8699
4.2590,0.8698
4.2600,0.8697
4.2610,0.8695
4.2620,0.8694
4.2630,0.8693
4.2640,0.8692
4.2650,0.8691
4.2660,0.8690
4.2670,0.8688
4.2680,0.8687
4.2690,0.8686
4.2700,0.8685
4.2710,0.8684
4.2720,0.8682
4.2730,0.8681
4.2740,0.8680
4.2750,0.8679
4.2760,0.8677
4.2770,0.8676
4.2780,0.8675
4.2790,0.8674
4.2800,0.8672
4.2810,0.8671
4.2820,0.8670
4.2830,0.8669
4.2840,0.8667
4.2850,0.8666
4.2860,0.8665
4.2870,0.8664
4.2880,0.8662
4.2890,0.8661
4.2900,0.8660
4.2910,0.8658
4.2920,0.8657
4.2930,0.8656
4.2940,0.8654
4.2950,0.8653
4.2960,0.8652
4.2970,0.8651
4.2980,0.8649
4.2990,0.8648
4.3000,0.8647
4.3010,0.8645
4.3020,0.8644
4.3030,0.8642
4.3040,0.8641
4.3050,0.8640
4.3060,0.8638
4.3070,0.8637
4.3080,0.8636
4.3090,0.8634
4.3100,0.8633
4.3110,0.8631
4.3120,0.8630
4.3130,0.8629
4.3140,0.8627
4.3150,0.8626
4.3160,0.8624
4.3170,0.8623
4.3180,0.8622
4.3190,0.8620
4.3200,0.8619
4.3210,0.8617
4.3220,0.8616
4.3230,0.8614
4.3240,0.8613
4.3250,0.8612
4.3260,0.8610
4.3270,0.8609
4.3280,0.8607
4.3290,0.8606
4.3300,0.8604
4.3310,0.8603
4.3320,0.8601
4.3330,0.8600
4.3340,0.8598
4.3350,0.8597
4.3360,0.8595
4.3370,0.8594
4.3380,0.8592
4.3390,0.8591
4.3400,0.8589
4.3410,0.8588
4.3420,0.8586
4.3430,0.8585
4.3440,0.8583
4.3450,0.8581
4.3460,0.8580
4.3470,0.8578
4.3480,0.8577
4.3490,0.8575
4.3500,0.8574
4.3510,0.8572
4.3520,0.8570
4.3530,0.8569
4.3540,0.8567
4.3550,0.8566
4.3560,0.8564
4.3570,0.8562
4.3580,0.8561
4.3590,0.8559
4.3600,0.8558
4.3610,0.8556
4.3620,0.8554
4.3630,0.8553
4.3640,0.8551
4.3650,0.8549
4.3660,0.8548
4.3670,0.8546
4.3680,0.8544
4.3690,0.8543
4.3700,0.8541
4.3710,0.8539
4.3720,0.8538
4.3730,0.8536
4.3740,0.8534
4.3750,0.8533
4.3760,0.8531
4.3770,0.8529
4.3780,0.8527
4.3790,0.8526
4.3800,0.8524
4.3810,0.8522
4.3820,0.8521
4.3830,0.8519
4.3840,0.8517
4.3850,0.8515
4.3860,0.8514
4.3870,0.8512
4.3880,0.8510
4.3890,0.8508
4.3900,0.8507
4.3910,0.8505
4.3920,0.8503
4.3930,0.8501
4.3940,0.8499
4.3950,0.8498
4.3960,0.8496
4.3970,0.8494
4.3980,0.8492
4.3990,0.8490
4.4000,0.8489
4.4010,0.8487
4.4020,0.8485
4.4030,0.8483
4.4040,0.8481
4.4050,0.8479
4.4060,0.8477
4.4070,0.8476
4.4080,0.8474
4.4090,0.8472
4.4100,0.8470
4.4110,0.8468
4.4120,0.8466
4.4130,0.8464
4.4140,0.8462
4.4150,0.8460
4.4160,0.8459
4.4170,0.8457
4.4180,0.8455
4.4190,0.8453
4.4200,0.8451
4.4210,0.8449
4.4220,0.8447
4.4230,0.8445
4.4240,0.8443
4.4250,0.8441
4.4260,0.8439
4.4270,0.8437
4.4280,0.8435
4.4290,0.8433
4.4300,0.8431
4.4310,0.8429
4.4320,0.8427
4.4330,0.8425
4.4340,0.8423
4.4350,0.8421
4.4360,0.8419
4.4370,0.8417
4.4380,0.8415
4.4390,0.8413
4.4400,0.8411
4.4410,0.8409
4.4420,0.8407
4.4430,0.8405
4.4440,0.8403
4.4450,0.8401
4.4460,0.8399
4.4470,0.8397
4.4480,0.8395
4.4490,0.8393
4.4500,0.8390
4.4510,0.8388
4.4520,0.8386
4.4530,0.8384
4.4540,0.8382
4.4550,0.8380
4.4560,0.8378
4.4570,0.8376
4.4580,0.8374
4.4590,0.8371
4.4600,0.8369
4.4610,0.8367
4.4620,0.8365
4.4630,0.8363
4.4640,0.8361
4.4650,0.8358
4.4660,0.8356
4.4670,0.8354
4.4680,0.8352
4.4690,0.8350
4.4700,0.8347
4.4710,0.8345
4.4720,0.8343
4.4730,0.8341
4.4740,0.8339
4.4750,0.8336
4.4760,0.8334
4.4770,0.8332
4.4780,0.8330
4.4790,0.8327
4.4800,0.8325
4.4810,0.8323
4.4820,0.8321
4.4830,0.8318
4.4840,0.8316
4.4850,0.8314
4.4860,0.8311
4.4870,0.8309
4.4880,0.8307
4.4890,0.8304
4.4900,0.8302
4.4910,0.8300
4.4920,0.8298
4.4930,0.8295
4.4940,0.8293
4.4950,0.8290
4.4960,0.8288
4.4970,0.8286
4.4980,0.8283
4.4990,0.8281
4.5000,0.8279
4.5010,0.8276
4.5020,0.8274
4.5030,0.8271
4.5040,0.8269
4.5050,0.8267
4.5060,0.8264
4.5070,0.8262
4.5080,0.8259
4.5090,0.8257
4.5100,0.8255
4.5110,0.8252
4.5120,0.8250
4.5130,0.8247
4.5140,0.8245
4.5150,0.8242
4.5160,0.8240
4.5170,0.8237
4.5180,0.8235
4.5190,0.8232
4.5200,0.8230
4.5210,0.8227
4.5220,0.8225
4.5230,0.8222
4.5240,0.8220
4.5250,0.8217
4.5260,0.8215
4.5270,0.8212
4.5280,0.8210
4.5290,0.8207
4.5300,0.8205
4.5310,0.8202
4.5320,0.8199
4.5330,0.8197
4.5340,0.8194
4.5350,0.8192
4.5360,0.8189
4.5370,0.8187
4.5380,0.8184
4.5390,0.8181
4.5400,0.8179
4.5410,0.8176
4.5420,0.8173
4.5430,0.8171
4.5440,0.8168
4.5450,0.8166
4.5460,0.8163
4.5470,0.8160
4.5480,0.8158
4.5490,0.8155
4.5500,0.8152
4.5510,0.8149
4.5520,0.8147
4.5530,0.8144
4.5540,0.8141
4.5550,0.8139
4.5560,0.8136
4.5570,0.8133
4.5580,0.8131
4.5590,0.8128
4.5600,0.8125
4.5610,0.8122
4.5620,0.8120
4.5630,0.8117
4.5640,0.8114
4.5650,0.8111
4.5660,0.8108
4.5670,0.8106
4.5680,0.8103
4.5690,0.8100
4.5700,0.8097
4.5710,0.8094
4.5720,0.8092
4.5730,0.8089
4.5740,0.8086
4.5750,0.8083
4.5760,0.8080
4.5770,0.8077
4.5780,0.8075
4.5790,0.8072
4.5800,0.8069
4.5810,0.8066
4.5820,0.8063
4.5830,0.8060
4.5840,0.8057
4.5850,0.8054
4.5860,0.8052
4.5870,0.8049
4.5880,0.8046
4.5890,0.8043
4.5900,0.8040
4.5910,0.8037
4.5920,0.8034
4.5930,0.8031
4.5940,0.8028
4.5950,0.8025
4.5960,0.8022
4.5970,0.8019
4.5980,0.8016
4.5990,0.8013
4.6000,0.8010
4.6010,0.8007
4.6020,0.8004
4.6030,0.8001
4.6040,0.7998
4.6050,0.7995
4.6060,0.7992
4.6070,0.7989
4.6080,0.7986
4.6090,0.7983
4.6100,0.7980
4.6110,0.7977
4.6120,0.7974
4.6130,0.7971
4.6140,0.7967
4.6150,0.7964
4.6160,0.7961
4.6170,0.7958
4.6180,0.7955
4.6190,0.7952
4.6200,0.7949
4.6210,0.7946
4.6220,0.7942
4.6230,0.7939
4.6240,0.7936
4.6250,0.7933
4.6260,0.7930
4.6270,0.7927
4.6280,0.7923
4.6290,0.7920
4.6300,0.7917
4.6310,0.7914
4.6320,0.7911
4.6330,0.7907
4.6340,0.7904
4.6350,0.7901
4.6360,0.7898
4.6370,0.7894
4.6380,0.7891
4.6390,0.7888
4.6400,0.7885
4.6410,0.7881
4.6420,0.7878
4.6430,0.7875
4.6440,0.7871
4.6450,0.7868
4.6460,0.7865
4.6470,0.7862
4.6480,0.7858
4.6490,0.7855
4.6500,0.7852
4.6510,0.7848
4.6520,0.7845
4.6530,0.7842
4.6540,0.7838
4.6550,0.7835
4.6560,0.7831
4.6570,0.7828
4.6580,0.7825
4.6590,0.7821
4.6600,0.7818
4.6610,0.7814
4.6620,0.7811
4.6630,0.7808
4.6640,0.7804
4.6650,0.7801
4.6660,0.7797
4.6670,0.7794
4.6680,0.7790
4.6690,0.7787
4.6700,0.7783
4.6710,0.7780
4.6720,0.7776
4.6730,0.7773
4.6740,0.7769
4.6750,0.7766
4.6760,0.7762
4.6770,0.7759
4.6780,0.7755
4.6790,0.7752
4.6800,0.7748
4.6810,0.7745
4.6820,0.7741
4.6830,0.7737
4.6840,0.7734
4.6850,0.7730
4.6860,0.7727
4.6870,0.7723
4.6880,0.7719
4.6890,0.7716
4.6900,0.7712
4.6910,0.7708
4.6920,0.7705
4.6930,0.7701
4.6940,0.7698
4.6950,0.7694
4.6960,0.7690
4.6970,0.7687
4.6980,0.7683
4.6990,0.7679
4.7000,0.7675
4.7010,0.7672
4.7020,0.7668
4.7030,0.7664
4.7040,0.7661
4.7050,0.7657
4.7060,0.7653
4.7070,0.7649
4.7080,0.7646
4.7090,0.7642
4.7100,0.7638
4.7110,0.7634
4.7120,0.7630
4.7130,0.7627
4.7140,0.7623
4.7150,0.7619
4.7160,0.7615
4.7170,0.7611
4.7180,0.7608
4.7190,0.7604
4.7200,0.7600
4.7210,0.7596
4.7220,0.7592
4.7230,0.7588
4.7240,0.7584
4.7250,0.7581
4.7260,0.7577
4.7270,0.7573
4.7280,0.7569
4.7290,0.7565
4.7300,0.7561
4.7310,0.7557
4.7320,0.7553
4.7330,0.7549
4.7340,0.7545
4.7350,0.7541
4.7360,0.7537
4.7370,0.7533
4.7380,0.7529
4.7390,0.7525
4.7400,0.7521
4.7410,0.7517
4.7420,0.7513
4.7430,0.7509
4.7440,0.7505
4.7450,0.7501
4.7460,0.7497
4.7470,0.7493
4.7480,0.7489
4.7490,0.7485
4.7500,0.7481
4.7510,0.7477
4.7520,0.7473
4.7530,0.7468
4.7540,0.7464
4.7550,0.7460
4.7560,0.7456
4.7570,0.7452
4.7580,0.7448
4.7590,0.7444
4.7600,0.7440
4.7610,0.7435
4.7620,0.7431
4.7630,0.7427
4.7640,0.7423
4.7650,0.7419
4.7660,0.7414
4.7670,0.7410
4.7680,0.7406
4.7690,0.7402
4.7700,0.7397
4.7710,0.7393
4.7720,0.7389
4.7730,0.7385
4.7740,0.7380
4.7750,0.7376
4.7760,0.7372
4.7770,0.7368
4.7780,0.7363
4.7790,0.7359
4.7800,0.7355
4.7810,0.7350
4.7820,0.7346
4.7830,0.7342
4.7840,0.7337
4.7850,0.7333
4.7860,0.7328
4.7870,0.7324
4.7880,0.7320
4.7890,0.7315
4.7900,0.7311
4.7910,0.7306
4.7920,0.7302
4.7930,0.7298
4.7940,0.7293
4.7950,0.7289
4.7960,0.7284
4.7970,0.7280
4.7980,0.7275
4.7990,0.7271
4.8000,0.7266
4.8010,0.7262
4.8020,0.7257
4.8030,0.7253
4.8040,0.7248
4.8050,0.7244
4.8060,0.7239
4.8070,0.7235
4.8080,0.7230
4.8090,0.7226
4.8100,0.7221
4.8110,0.7216
4.8120,0.7212
4.8130,0.7207
4.8140,0.7203
4.8150,0.7198
4.8160,0.7193
4.8170,0.7189
4.8180,0.7184
4.8190,0.7180
4.8200,0.7175
4.8210,0.7170
4.8220,0.7166
4.8230,0.7161
4.8240,0.7156
4.8250,0.7151
4.8260,0.7147
4.8270,0.7142
4.8280,0.7137
4.8290,0.7133
4.8300,0.7128
4.8310,0.7123
4.8320,0.7118
4.8330,0.7114
4.8340,0.7109
4.8350,0.7104
4.8360,0.7099
4.8370,0.7094
4.8380,0.7090
4.8390,0.7085
4.8400,0.7080
4.8410,0.7075
4.8420,0.7070
4.8430,0.7065
4.8440,0.7061
4.8450,0.7056
4.8460,0.7051
4.8470,0.7046
4.8480,0.7041
4.8490,0.7036
4.8500,0.7031
4.8510,0.7026
4.8520,0.7021
4.8530,0.7016
4.8540,0.7011
4.8550,0.7006
4.8560,0.7002
4.8570,0.6997
4.8580,0.6992
4.8590,0.6987
4.8600,0.6982
4.8610,0.6977
4.8620,0.6972
4.8630,0.6966
4.8640,0.6961
4.8650,0.6956
4.8660,0.6951
4.8670,0.6946
4.8680,0.6941
4.8690,0.6936
4.8700,0.6931
4.8710,0.6926
4.8720,0.6921
4.8730,0.6916
4.8740,0.6911
4.8750,0.6905
4.8760,0.6900
4.8770,0.6895
4.8780,0.6890
4.8790,0.6885
4.8800,0.6880
4.8810,0.6874
4.8820,0.6869
4.8830,0.6864
4.8840,0.6859
4.8850,0.6853
4.8860,0.6848
4.8870,0.6843
4.8880,0.6838
4.8890,0.6832
4.8900,0.6827
4.8910,0.6822
4.8920,0.6817
4.8930,0.6811
4.8940,0.6806
4.8950,0.6801
4.8960,0.6795
4.8970,0.6790
4.8980,0.6785
4.8990,0.6779
4.9000,0.6774
4.9010,0.6769
4.9020,0.6763
4.9030,0.6758
4.9040,0.6752
4.9050,0.6747
4.9060,0.6742
4.9070,0.6736
4.9080,0.6731
4.9090,0.6725
4.9100,0.6720
4.9110,0.6714
4.9120,0.6709
4.9130,0.6703
4.9140,0.6698
4.9150,0.6692
4.9160,0.6687
4.9170,0.6681
4.9180,0.6676
4.9190,0.6670
4.9200,0.6665
4.9210,0.6659
4.9220,0.6653
4.9230,0.6648
4.9240,0.6642
4.9250,0.6637
4.9260,0.6631
4.9270,0.6625
4.9280,0.6620
4.9290,0.6614
4.9300,0.6608
4.9310,0.6603
4.9320,0.6597
4.9330,0.6591
4.9340,0.6586
4.9350,0.6580
4.9360,0.6574
4.9370,0.6569
4.9380,0.6563
4.9390,0.6557
4.9400,0.6551
4.9410,0.6546
4.9420,0.6540
4.9430,0.6534
4.9440,0.6528
4.9450,0.6522
4.9460,0.6517
4.9470,0.6511
4.9480,0.6505
4.9490,0.6499
4.9500,0.6493
4.9510,0.6487
4.9520,0.6482
4.9530,0.6476
4.9540,0.6470
4.9550,0.6464
4.9560,0.6458
4.9570,0.6452
4.9580,0.6446
4.9590,0.6440
4.9600,0.6434
4.9610,0.6428
4.9620,0.6422
4.9630,0.6416
4.9640,0.6410
4.9650,0.6404
4.9660,0.6398
4.9670,0.6392
4.9680,0.6386
4.9690,0.6380
4.9700,0.6374
4.9710,0.6368
4.9720,0.6362
4.9730,0.6356
4.9740,0.6350
4.9750,0.6344
4.9760,0.6338
4.9770,0.6332
4.9780,0.6326
4.9790,0.6319
4.9800,0.6313
4.9810,0.6307
4.9820,0.6301
4.9830,0.6295
4.9840,0.6289
4.9850,0.6282
4.9860,0.6276
4.9870,0.6270
4.9880,0.6264
4.9890,0.6257
4.9900,0.6251
4.9910,0.6245
4.9920,0.6239
4.9930,0.6232
4.9940,0.6226
4.9950,0.6220
4.9960,0.6213
4.9970,0.6207
4.9980,0.6201
4.9990,0.6194
5.0000,0.6188
5.0010,0.6182
5.0020,0.6175
5.0030,0.6169
5.0040,0.6163
5.0050,0.6156
5.0060,0.6150
5.0070,0.6143
5.0080,0.6137
5.0090,0.6130
5.0100,0.6124
5.0110,0.6118
5.0120,0.6111
5.0130,0.6105
5.0140,0.6098
5.0150,0.6092
5.0160,0.6085
5.0170,0.6078
5.0180,0.6072
5.0190,0.6065
5.0200,0.6059
5.0210,0.6052
5.0220,0.6046
5.0230,0.6039
5.0240,0.6032
5.0250,0.6026
5.0260,0.6019
5.0270,0.6013
5.0280,0.6006
5.0290,0.5999
5.0300,0.5993
5.0310,0.5986
5.0320,0.5979
5.0330,0.5973
5.0340,0.5966
5.0350,0.5959
5.0360,0.5952
5.0370,0.5946
5.0380,0.5939
5.0390,0.5932
5.0400,0.5925
5.0410,0.5918
5.0420,0.5912
5.0430,0.5905
5.0440,0.5898
5.0450,0.5891
5.0460,0.5884
5.0470,0.5878
5.0480,0.5871
5.0490,0.5864
5.0500,0.5857
5.0510,0.5850
5.0520,0.5843
5.0530,0.5836
5.0540,0.5829
5.0550,0.5822
5.0560,0.5815
5.0570,0.5808
5.0580,0.5801
5.0590,0.5794
5.0600,0.5787
5.0610,0.5780
5.0620,0.5773
5.0630,0.5766
5.0640,0.5759
5.0650,0.5752
5.0660,0.5745
5.0670,0.5738
5.0680,0.5731
5.0690,0.5724
5.0700,0.5717
5.0710,0.5710
5.0720,0.5703
5.0730,0.5695
5.0740,0.5688
5.0750,0.5681
5.0760,0.5674
5.0770,0.5667
5.0780,0.5659
5.0790,0.5652
5.0800,0.5645
5.0810,0.5638
5.0820,0.5631
5.0830,0.5623
5.0840,0.5616
5.0850,0.5609
5.0860,0.5601
5.0870,0.5594
5.0880,0.5587
5.0890,0.5580
5.0900,0.5572
5.0910,0.5565
5.0920,0.5557
5.0930,0.5550
5.0940,0.5543
5.0950,0.5535
5.0960,0.5528
5.0970,0.5520
5.0980,0.5513
5.0990,0.5506
5.1000,0.5498
5.1010,0.5491
5.1020,0.5483
5.1030,0.5476
5.1040,0.5468
5.1050,0.5461
5.1060,0.5453
5.1070,0.5446
5.1080,0.5438
5.1090,0.5431
5.1100,0.5423
5.1110,0.5415
5.1120,0.5408
5.1130,0.5400
5.1140,0.5393
5.1150,0.5385
5.1160,0.5377
5.1170,0.5370
5.1180,0.5362
5.1190,0.5354
5.1200,0.5347
5.1210,0.5339
5.1220,0.5331
5.1230,0.5323
5.1240,0.5316
5.1250,0.5308
5.1260,0.5300
5.1270,0.5292
5.1280,0.5285
5.1290,0.5277
5.1300,0.5269
5.1310,0.5261
5.1320,0.5253
5.1330,0.5246
5.1340,0.5238
5.1350,0.5230
5.1360,0.5222
5.1370,0.5214
5.1380,0.5206
5.1390,0.5198
5.1400,0.5190
5.1410,0.5182
5.1420,0.5174
5.1430,0.5166
5.1440,0.5159
5.1450,0.5151
5.1460,0.5143
5.1470,0.5135
5.1480,0.5126
5.1490,0.5118
5.1500,0.5110
5.1510,0.5102
5.1520,0.5094
5.1530,0.5086
5.1540,0.5078
5.1550,0.5070
5.1560,0.5062
5.1570,0.5054
5.1580,0.5046
5.1590,0.5037
5.1600,0.5029
5.1610,0.5021
5.1620,0.5013
5.1630,0.5005
5.1640,0.4996
5.1650,0.4988
5.1660,0.4980
5.1670,0.4972
5.1680,0.4963
5.1690,0.4955
5.1700,0.4947
5.1710,0.4939
5.1720,0.4930
5.1730,0.4922
5.1740,0.4914
5.1750,0.4905
5.1760,0.4897
5.1770,0.4888
5.1780,0.4880
5.1790,0.4872
5.1800,0.4863
5.1810,0.4855
5.1820,0.4846
5.1830,0.4838
5.1840,0.4829
5.1850,0.4821
5.1860,0.4812
5.1870,0.4804
5.1880,0.4795
5.1890,0.4787
5.1900,0.4778
5.1910,0.4770
5.1920,0.4761
5.1930,0.4753
5.1940,0.4744
5.1950,0.4735
5.1960,0.4727
5.1970,0.4718
5.1980,0.4709
5.1990,0.4701
5.2000,0.4692
5.2010,0.4683
5.2020,0.4675
5.2030,0.4666
5.2040,0.4657
5.2050,0.4648
5.2060,0.4640
5.2070,0.4631
5.2080,0.4622
5.2090,0.4613
5.2100,0.4605
5.2110,0.4596
5.2120,0.4587
5.2130,0.4578
5.2140,0.4569
5.2150,0.4560
5.2160,0.4551
5.2170,0.4543
5.2180,0.4534
5.2190,0.4525
5.2200,0.4516
5.2210,0.4507
5.2220,0.4498
5.2230,0.4489
5.2240,0.4480
5.2250,0.4471
5.2260,0.4462
5.2270,0.4453
5.2280,0.4444
5.2290,0.4435
5.2300,0.4426
5.2310,0.4417
5.2320,0.4408
5.2330,0.4398
5.2340,0.4389
5.2350,0.4380
5.2360,0.4371
5.2370,0.4362
5.2380,0.4353
5.2390,0.4343
5.2400,0.4334
5.2410,0.4325
5.2420,0.4316
5.2430,0.4307
5.2440,0.4297
5.2450,0.4288
5.2460,0.4279
5.2470,0.4269
5.2480,0.4260
5.2490,0.4251
5.2500,0.4241
5.2510,0.4232
5.2520,0.4223
5.2530,0.4213
5.2540,0.4204
5.2550,0.4195
5.2560,0.4185
5.2570,0.4176
5.2580,0.4166
5.2590,0.4157
5.2600,0.4147
5.2610,0.4138
5.2620,0.4128
5.2630,0.4119
5.2640,0.4109
5.2650,0.4100
5.2660,0.4090
5.2670,0.4081
5.2680,0.4071
5.2690,0.4061
5.2700,0.4052
5.2710,0.4042
5.2720,0.4033
5.2730,0.4023
5.2740,0.4013
5.2750,0.4004
5.2760,0.3994
5.2770,0.3984
5.2780,0.3974
5.2790,0.3965
5.2800,0.3955
5.2810,0.3945
5.2820,0.3935
5.2830,0.3926
5.2840,0.3916
5.2850,0.3906
5.2860,0.3896
5.2870,0.3886
5.2880,0.3876
5.2890,0.3866
5.2900,0.3857
5.2910,0.3847
5.2920,0.3837
5.2930,0.3827
5.2940,0.3817
5.2950,0.3807
5.2960,0.3797
5.2970,0.3787
5.2980,0.3777
5.2990,0.3767
5.3000,0.3757
5.3010,0.3747
5.3020,0.3737
5.3030,0.3727
5.3040,0.3717
5.3050,0.3706
5.3060,0.3696
5.3070,0.3686
5.3080,0.3676
5.3090,0.3666
5.3100,0.3656
5.3110,0.3645
5.3120,0.3635
5.3130,0.3625
5.3140,0.3615
5.3150,0.3605
5.3160,0.3594
5.3170,0.3584
5.3180,0.3574
5.3190,0.3563
5.3200,0.3553
5.3210,0.3543
5.3220,0.3532
5.3230,0.3522
5.3240,0.3512
5.3250,0.3501
5.3260,0.3491
5.3270,0.3480
5.3280,0.3470
5.3290,0.3459
5.3300,0.3449
5.3310,0.3439
5.3320,0.3428
5.3330,0.3418
5.3340,0.3407
5.3350,0.3396
5.3360,0.3386
5.3370,0.3375
5.3380,0.3365
5.3390,0.3354
5.3400,0.3343
5.3410,0.3333
5.3420,0.3322
5.3430,0.3312
5.3440,0.3301
5.3450,0.3290
5.3460,0.3279
5.3470,0.3269
5.3480,0.3258
5.3490,0.3247
5.3500,0.3236
5.3510,0.3226
5.3520,0.3215
5.3530,0.3204
5.3540,0.3193
5.3550,0.3182
5.3560,0.3171
5.3570,0.3161
5.3580,0.3150
5.3590,0.3139
5.3600,0.3128
5.3610,0.3117
5.3620,0.3106
5.3630,0.3095
5.3640,0.3084
5.3650,0.3073
5.3660,0.3062
5.3670,0.3051
5.3680,0.3040
5.3690,0.3029
5.3700,0.3018
5.3710,0.3007
5.3720,0.2996
5.3730,0.2984
5.3740,0.2973
5.3750,0.2962
5.3760,0.2951
5.3770,0.2940
5.3780,0.2929
5.3790,0.2917
5.3800,0.2906
5.3810,0.2895
5.3820,0.2884
5.3830,0.2872
5.3840,0.2861
5.3850,0.2850
5.3860,0.2838
5.3870,0.2827
5.3880,0.2816
5.3890,0.2804
5.3900,0.2793
5.3910,0.2782
5.3920,0.2770
5.3930,0.2759
5.3940,0.2747
5.3950,0.2736
5.3960,0.2724
5.3970,0.2713
5.3980,0.2701
5.3990,0.2690
5.4000,0.2678
5.4010,0.2667
5.4020,0.2655
5.4030,0.2644
5.4040,0.2632
5.4050,0.2620
5.4060,0.2609
5.4070,0.2597
5.4080,0.2585
5.4090,0.2574
5.4100,0.2562
5.4110,0.2550
5.4120,0.2538
5.4130,0.2527
5.4140,0.2515
5.4150,0.2503
5.4160,0.2491
5.4170,0.2480
5.4180,0.2468
5.4190,0.2456
5.4200,0.2444
5.4210,0.2432
5.4220,0.2420
5.4230,0.2408
5.4240,0.2396
5.4250,0.2384
5.4260,0.2372
5.4270,0.2360
5.4280,0.2348
5.4290,0.2336
5.4300,0.2324
5.4310,0.2312
5.4320,0.2300
5.4330,0.2288
5.4340,0.2276
5.4350,0.2264
5.4360,0.2252
5.4370,0.2240
5.4380,0.2228
5.4390,0.2215
5.4400,0.2203
5.4410,0.2191
5.4420,0.2179
5.4430,0.2167
5.4440,0.2154
5.4450,0.2142
5.4460,0.2130
5.4470,0.2117
5.4480,0.2105
5.4490,0.2093
5.4500,0.2080
5.4510,0.2068
5.4520,0.2056
5.4530,0.2043
5.4540,0.2031
5.4550,0.2018
5.4560,0.2006
5.4570,0.1993
5.4580,0.1981
5.4590,0.1968
5.4600,0.1956
5.4610,0.1943
5.4620,0.1931
5.4630,0.1918
5.4640,0.1906
5.4650,0.1893
5.4660,0.1880
5.4670,0.1868
5.4680,0.1855
5.4690,0.1842
5.4700,0.1830
5.4710,0.1817
5.4720,0.1804
5.4730,0.1792
5.4740,0.1779
5.4750,0.1766
5.4760,0.1753
5.4770,0.1740
5.4780,0.1728
5.4790,0.1715
5.4800,0.1702
5.4810,0.1689
5.4820,0.1676
5.4830,0.1663
5.4840,0.1650
5.4850,0.1637
5.4860,0.1624
5.4870,0.1611
5.4880,0.1598
5.4890,0.1585
5.4900,0.1572
5.4910,0.1559
5.4920,0.1546
5.4930,0.1533
5.4940,0.1520
5.4950,0.1507
5.4960,0.1494
5.4970,0.1480
5.4980,0.1467
5.4990,0.1454
